H:M:S.f Gyro(x) Gyro(y) F3 FC5 AF3 F7 T7 P7 O1 O2 P8 T8 F8 AF4 FC6 F4
2040 2045 2109.1509 2137.2417 2096.1459 2131.2594 2135.421 2121.8958 2115.9135 2113.8327 2084.4414 2120.8554 2121.8958 2106.0297 2122.9362 2099.007 
2040 2044 2103.1686 2131.7796 2103.4287 2132.0397 2127.618 2115.9135 2110.1913 2105.2494 2077.9389 2120.3352 2121.3756 2102.6484 2110.7115 2096.406 
2040 2042 2107.5903 2135.1609 2114.3529 2144.5245 2134.3806 2115.9135 2108.3706 2108.3706 2078.4591 2109.6711 2122.1559 2117.4741 2118.5145 2104.4691 
2041 2041 2112.5322 2132.82 2126.3175 2151.2871 2121.3756 2116.9539 2110.9716 2106.5499 2080.2798 2103.6888 2122.1559 2130.7392 2121.8958 2116.1736 
2040 2042 2113.3125 2134.1205 2142.9639 2158.0497 2114.3529 2116.9539 2112.2721 2105.7696 2079.7596 2120.5953 2122.1559 2138.8023 2120.3352 2118.7746 
2042 2041 2117.214 2145.5649 2166.3729 2175.9966 2124.7569 2119.2948 2113.5726 2107.3302 2081.0601 2133.3402 2122.6761 2148.9462 2126.0574 2119.815 
2042 2041 2123.4564 2158.3098 2188.4814 2193.4233 2131.2594 2125.7973 2116.6938 2109.1509 2086.002 2129.1786 2122.9362 2166.8931 2135.1609 2129.4387 
2044 2041 2128.3983 2167.6734 2203.047 2202.5268 2133.6003 2129.6988 2119.815 2112.5322 2088.603 2128.9185 2124.2367 2183.5395 2140.623 2138.2821 
2044 2041 2128.1382 2168.7138 2206.6884 2205.1278 2134.6407 2125.7973 2116.4337 2113.3125 2086.002 2127.3579 2123.7165 2187.1809 2141.4033 2135.421 
2043 2040 2125.5372 2157.0093 2202.2667 2198.1051 2124.7569 2119.815 2110.4514 2109.411 2081.3202 2122.1559 2124.4968 2184.3198 2135.1609 2128.6584 
2044 2040 2128.1382 2155.4487 2202.5268 2194.9839 2120.8554 2120.5953 2112.2721 2110.9716 2082.3606 2123.9766 2127.3579 2190.042 2134.9008 2132.0397 
2045 2041 2130.219 2167.4133 2204.6076 2199.1455 2127.3579 2120.8554 2114.3529 2116.6938 2082.1005 2121.6357 2127.3579 2191.3425 2141.4033 2133.0801 
2048 2041 2127.0978 2167.4133 2195.7642 2196.5445 2128.6584 2116.9539 2107.5903 2114.3529 2078.9793 2120.5953 2125.5372 2177.8173 2141.4033 2124.2367 
2048 2039 2126.5776 2161.6911 2181.7188 2190.3021 2130.4791 2115.9135 2105.7696 2114.0928 2083.401 2133.6003 2125.017 2170.0143 2141.6634 2123.1963 
2047 2040 2124.2367 2161.6911 2167.9335 2184.84 2132.2998 2113.8327 2110.4514 2122.1559 2089.1232 2136.4614 2123.7165 2168.1936 2145.0447 2124.7569 
2047 2041 2119.2948 2151.2871 2151.8073 2171.3148 2124.4968 2109.1509 2106.81 2123.1963 2085.4818 2122.1559 2121.8958 2155.9689 2139.8427 2116.6938 
2044 2040 2119.0347 2139.3225 2141.6634 2159.6103 2119.5549 2109.411 2101.3479 2116.6938 2082.3606 2113.5726 2122.9362 2143.7442 2136.2013 2114.0928 
2045 2040 2121.3756 2143.7442 2139.3225 2159.0901 2129.1786 2112.2721 2107.0701 2115.3933 2086.002 2112.5322 2122.9362 2140.3629 2140.623 2119.2948 
2047 2039 2119.5549 2147.1255 2134.6407 2153.3679 2131.7796 2114.3529 2114.613 2118.2544 2089.6434 2116.9539 2121.6357 2133.8604 2139.0624 2117.7342 
2046 2039 2117.7342 2139.5826 2123.4564 2139.8427 2121.1155 2115.1332 2114.613 2119.2948 2090.9439 2115.9135 2121.8958 2120.8554 2128.9185 2110.4514 
2045 2039 2118.5145 2134.1205 2113.3125 2134.3806 2118.2544 2112.012 2114.3529 2118.7746 2091.204 2104.9893 2121.6357 2113.8327 2123.9766 2109.1509 
2044 2040 2117.9943 2130.9993 2111.2317 2133.3402 2123.4564 2110.4514 2115.9135 2116.9539 2089.1232 2106.5499 2122.1559 2113.0524 2122.9362 2111.4918 
2043 2042 2115.3933 2127.3579 2109.9312 2125.5372 2123.1963 2114.3529 2114.3529 2112.012 2086.2621 2115.9135 2122.416 2109.1509 2119.815 2109.9312 
2041 2040 2111.4918 2122.416 2102.9085 2116.1736 2114.0928 2113.8327 2112.012 2109.1509 2084.9616 2107.5903 2121.8958 2102.3883 2117.214 2104.9893 
2041 2040 2110.9716 2116.9539 2096.6661 2112.2721 2109.9312 2112.012 2114.0928 2111.2317 2087.3025 2102.9085 2121.3756 2100.8277 2117.9943 2104.7292 
2039 2041 2112.7923 2116.6938 2099.2671 2109.6711 2115.6534 2114.0928 2114.613 2110.1913 2089.1232 2117.4741 2121.6357 2104.209 2120.3352 2107.8504 
2039 2040 2112.7923 2122.1559 2103.4287 2109.1509 2117.9943 2113.0524 2109.9312 2105.7696 2085.4818 2120.3352 2122.9362 2106.0297 2118.5145 2106.5499 
2039 2040 2106.5499 2122.9362 2099.2671 2108.3706 2113.3125 2108.8908 2106.2898 2107.8504 2081.5803 2110.4514 2121.1155 2103.4287 2113.3125 2100.8277 
2038 2040 2100.5676 2116.9539 2093.2848 2102.9085 2113.8327 2107.8504 2106.81 2110.4514 2079.2394 2105.7696 2117.4741 2096.6661 2110.4514 2094.5853 
2039 2042 2102.1282 2117.214 2093.2848 2103.4287 2121.3756 2107.8504 2109.411 2111.2317 2079.4995 2106.5499 2119.0347 2093.2848 2113.5726 2093.805 
2041 2041 2109.411 2126.5776 2098.2267 2114.3529 2120.8554 2109.411 2113.0524 2118.7746 2085.7419 2106.81 2122.9362 2100.8277 2119.5549 2102.3883 
2043 2040 2114.613 2133.6003 2103.9489 2119.0347 2113.8327 2114.613 2116.4337 2125.2771 2093.5449 2109.1509 2121.8958 2109.1509 2124.2367 2108.6307 
2042 2041 2115.1332 2130.9993 2104.9893 2115.1332 2115.3933 2114.8731 2115.3933 2123.4564 2094.0651 2116.4337 2121.8958 2107.8504 2127.0978 2107.8504 
2043 2040 2112.7923 2124.4968 2101.0878 2114.3529 2119.815 2106.5499 2110.9716 2121.3756 2089.9035 2118.2544 2122.6761 2102.6484 2125.7973 2107.0701 
2042 2042 2111.7519 2120.3352 2099.007 2114.3529 2114.8731 2101.608 2109.6711 2122.416 2091.4641 2108.8908 2118.7746 2099.007 2120.5953 2106.0297 
2044 2042 2112.2721 2118.7746 2102.1282 2114.8731 2109.6711 2106.2898 2113.8327 2124.2367 2095.6257 2102.9085 2117.9943 2099.2671 2122.1559 2106.5499 
2045 2042 2112.5322 2119.0347 2102.1282 2117.4741 2114.8731 2109.411 2116.4337 2122.9362 2093.0247 2105.5095 2120.0751 2099.5272 2126.3175 2109.411 
2046 2042 2111.7519 2120.5953 2100.8277 2119.5549 2118.7746 2109.411 2115.6534 2116.9539 2089.1232 2104.7292 2119.815 2097.1863 2122.6761 2109.9312 
2047 2040 2112.2721 2121.3756 2104.7292 2117.7342 2109.9312 2111.4918 2115.9135 2114.613 2093.0247 2103.1686 2120.0751 2096.1459 2116.6938 2110.1913 
2048 2040 2114.8731 2118.5145 2106.81 2114.0928 2103.9489 2112.5322 2119.815 2117.7342 2096.6661 2105.2494 2121.3756 2097.4464 2118.5145 2113.5726 
2049 2043 2119.2948 2114.3529 2104.4691 2112.2721 2108.6307 2111.2317 2125.017 2120.3352 2096.9262 2108.8908 2121.1155 2097.4464 2123.7165 2118.2544 
2048 2043 2121.1155 2114.0928 2106.0297 2111.2317 2111.7519 2112.012 2127.0978 2117.9943 2098.7469 2112.7923 2122.1559 2096.406 2120.8554 2120.5953 
2047 2041 2116.6938 2117.214 2110.7115 2106.5499 2110.1913 2111.7519 2121.6357 2110.4514 2095.6257 2110.4514 2120.5953 2096.1459 2112.2721 2115.9135 
2047 2041 2113.8327 2120.0751 2113.0524 2104.7292 2109.1509 2110.4514 2118.5145 2105.5095 2092.2444 2106.2898 2117.4741 2097.4464 2110.4514 2112.2721 
2047 2042 2114.8731 2117.214 2115.6534 2107.3302 2110.4514 2114.3529 2123.1963 2108.8908 2095.6257 2106.5499 2119.2948 2102.9085 2112.7923 2116.9539 
2046 2042 2113.5726 2113.0524 2114.8731 2102.6484 2111.2317 2113.3125 2122.6761 2110.9716 2095.8858 2110.4514 2121.1155 2106.0297 2108.6307 2115.6534 
2046 2041 2109.1509 2113.5726 2110.9716 2100.0474 2111.7519 2104.9893 2115.6534 2109.9312 2093.0247 2113.8327 2119.0347 2105.5095 2107.3302 2108.1105 
2046 2040 2110.1913 2114.0928 2110.9716 2103.6888 2110.7115 2101.608 2114.8731 2110.7115 2096.406 2113.3125 2119.815 2104.209 2109.9312 2107.8504 
2045 2041 2113.8327 2114.3529 2110.7115 2099.007 2108.3706 2102.3883 2117.7342 2113.5726 2100.5676 2114.613 2120.8554 2101.0878 2106.81 2110.4514 
2045 2039 2116.6938 2120.8554 2111.2317 2100.3075 2111.2317 2101.8681 2117.9943 2117.9943 2101.3479 2118.7746 2118.5145 2105.7696 2113.8327 2115.1332 
2045 2039 2124.7569 2130.219 2123.1963 2117.214 2117.9943 2106.5499 2121.6357 2121.8958 2107.3302 2123.7165 2118.7746 2123.1963 2135.6811 2129.6988 
2046 2040 2133.0801 2132.5599 2137.2417 2124.2367 2120.8554 2112.5322 2125.7973 2122.416 2112.5322 2125.2771 2122.9362 2133.8604 2143.4841 2139.8427 
2045 2040 2130.7392 2130.4791 2134.6407 2118.2544 2117.214 2110.9716 2124.2367 2122.9362 2112.012 2122.6761 2123.4564 2128.1382 2133.3402 2133.0801 
2043 2042 2122.9362 2122.9362 2121.6357 2114.0928 2114.8731 2107.0701 2121.6357 2122.1559 2110.1913 2115.6534 2119.5549 2117.4741 2125.7973 2121.8958 
2042 2041 2118.5145 2115.3933 2117.214 2107.3302 2111.4918 2109.1509 2124.2367 2117.7342 2110.1913 2112.7923 2118.7746 2109.411 2121.6357 2117.7342 
2042 2041 2115.6534 2113.3125 2115.1332 2099.5272 2106.2898 2111.2317 2128.1382 2114.613 2110.1913 2113.3125 2120.3352 2102.1282 2114.8731 2114.3529 
2042 2042 2113.3125 2109.6711 2105.2494 2099.2671 2103.6888 2109.1509 2127.3579 2112.012 2109.1509 2110.4514 2119.5549 2094.8454 2110.7115 2109.411 
2042 2040 2113.3125 2104.9893 2100.5676 2094.3252 2099.007 2108.1105 2122.9362 2105.7696 2107.3302 2107.8504 2117.9943 2090.9439 2105.2494 2109.411 
2041 2039 2110.4514 2101.608 2100.0474 2081.8404 2098.7469 2106.0297 2121.3756 2102.1282 2104.7292 2104.4691 2117.4741 2088.3429 2095.1055 2108.8908 
2041 2039 2107.0701 2095.6257 2095.3656 2075.598 2100.3075 2101.3479 2122.6761 2103.9489 2103.4287 2099.7873 2116.6938 2085.7419 2090.9439 2103.9489 
2042 2039 2108.6307 2094.3252 2099.007 2078.9793 2094.0651 2102.1282 2123.7165 2105.5095 2103.9489 2100.5676 2117.7342 2090.9439 2096.1459 2105.7696 
2042 2037 2107.5903 2100.3075 2109.9312 2080.2798 2093.805 2105.7696 2122.416 2103.4287 2102.6484 2105.2494 2119.5549 2101.0878 2096.6661 2108.3706 
2042 2039 2103.9489 2102.9085 2110.9716 2079.4995 2105.7696 2104.9893 2121.3756 2104.9893 2101.0878 2110.1913 2119.5549 2103.9489 2094.3252 2104.9893 
2041 2037 2106.2898 2106.2898 2112.2721 2084.7015 2107.3302 2106.0297 2123.7165 2110.7115 2104.209 2116.9539 2118.7746 2105.5095 2100.0474 2108.8908 
2042 2037 2110.4514 2112.7923 2116.4337 2086.7823 2100.5676 2108.6307 2123.7165 2113.5726 2108.6307 2121.8958 2119.2948 2109.1509 2103.6888 2114.613 
2041 2038 2107.0701 2112.7923 2110.1913 2081.8404 2103.1686 2103.9489 2120.3352 2113.3125 2105.7696 2118.5145 2119.815 2106.0297 2097.9666 2106.81 
2042 2039 2106.2898 2110.9716 2105.7696 2084.4414 2101.3479 2100.3075 2119.0347 2112.012 2102.3883 2111.2317 2118.2544 2101.608 2095.1055 2101.0878 
2041 2039 2110.7115 2116.1736 2113.8327 2092.7646 2099.2671 2104.9893 2121.3756 2111.4918 2106.81 2113.3125 2118.5145 2108.8908 2102.1282 2108.3706 
2042 2039 2109.1509 2120.3352 2119.0347 2093.2848 2108.6307 2106.0297 2122.1559 2113.8327 2109.6711 2120.3352 2122.1559 2115.9135 2108.6307 2111.7519 
2040 2040 2104.4691 2116.6938 2114.8731 2090.4237 2112.7923 2101.8681 2120.8554 2115.3933 2103.6888 2116.1736 2121.8958 2112.7923 2109.411 2107.5903 
2041 2043 2104.4691 2112.5322 2113.0524 2089.3833 2104.9893 2101.3479 2121.1155 2114.3529 2102.3883 2108.1105 2118.5145 2108.1105 2106.5499 2107.5903 
2041 2042 2103.1686 2112.2721 2113.5726 2084.7015 2097.9666 2100.0474 2121.6357 2112.7923 2106.0297 2108.1105 2118.7746 2108.1105 2103.9489 2106.5499 
2042 2043 2100.8277 2110.4514 2110.7115 2084.4414 2095.6257 2095.6257 2122.1559 2114.3529 2108.3706 2110.1913 2119.0347 2108.3706 2106.2898 2105.5095 
2044 2046 2104.7292 2108.8908 2114.0928 2092.7646 2096.406 2099.7873 2123.4564 2116.4337 2112.7923 2112.2721 2117.4741 2110.4514 2111.2317 2113.3125 
2045 2047 2107.3302 2111.7519 2121.3756 2091.9843 2101.0878 2106.5499 2123.1963 2112.2721 2111.7519 2114.0928 2119.2948 2112.012 2107.5903 2117.4741 
2048 2048 2105.7696 2112.5322 2120.8554 2084.1813 2101.8681 2104.209 2123.4564 2107.8504 2103.9489 2106.0297 2120.0751 2109.6711 2100.5676 2110.9716 
2048 2047 2107.8504 2106.81 2116.6938 2082.3606 2090.6838 2100.5676 2123.7165 2108.3706 2101.3479 2098.2267 2119.815 2108.1105 2098.2267 2107.8504 
2049 2047 2109.9312 2106.2898 2122.9362 2082.8808 2086.002 2104.9893 2122.9362 2109.9312 2105.5095 2108.6307 2121.8958 2111.7519 2097.7065 2112.5322 
2051 2046 2107.3302 2110.4514 2128.3983 2078.199 2097.7065 2104.9893 2120.3352 2110.1913 2105.5095 2117.9943 2121.3756 2114.0928 2095.8858 2112.2721 
2053 2044 2104.209 2107.0701 2121.8958 2073.5172 2102.6484 2099.7873 2116.6938 2107.8504 2100.5676 2110.1913 2117.9943 2109.6711 2093.2848 2107.3302 
2054 2043 2105.7696 2109.411 2125.017 2077.4187 2101.0878 2104.9893 2117.214 2109.1509 2102.6484 2109.6711 2120.3352 2113.3125 2095.3656 2112.012 
2054 2045 2110.1913 2126.0574 2138.8023 2088.0828 2110.7115 2115.1332 2120.8554 2119.2948 2113.8327 2124.2367 2122.9362 2129.6988 2106.5499 2122.6761 
2053 2044 2108.8908 2127.8781 2135.1609 2089.6434 2112.7923 2111.7519 2119.5549 2122.1559 2115.6534 2122.9362 2120.8554 2129.1786 2110.4514 2119.0347 
2056 2044 2101.608 2112.5322 2119.815 2078.199 2103.1686 2103.9489 2112.012 2110.1913 2102.1282 2107.0701 2120.8554 2113.0524 2099.7873 2106.81 
2055 2044 2098.7469 2111.4918 2118.5145 2076.1182 2107.5903 2106.81 2107.8504 2108.8908 2097.4464 2111.4918 2120.8554 2113.3125 2097.7065 2104.209 
2054 2043 2101.3479 2119.815 2116.4337 2081.3202 2113.8327 2105.7696 2107.5903 2118.7746 2102.6484 2125.2771 2119.0347 2116.6938 2103.9489 2103.1686 
2055 2044 2099.007 2115.3933 2107.5903 2078.7192 2107.5903 2097.1863 2106.2898 2116.6938 2099.007 2116.6938 2117.214 2104.7292 2097.9666 2094.5853 
2053 2043 2096.1459 2111.7519 2107.8504 2076.6384 2102.6484 2096.1459 2104.4691 2112.2721 2091.9843 2102.1282 2117.4741 2100.0474 2089.1232 2090.9439 
2051 2043 2098.7469 2115.1332 2110.1913 2081.3202 2102.1282 2099.5272 2106.2898 2116.6938 2094.0651 2106.0297 2117.4741 2103.9489 2094.8454 2092.2444 
2049 2043 2103.6888 2115.6534 2108.3706 2084.9616 2107.8504 2099.7873 2111.4918 2120.0751 2100.3075 2106.0297 2116.9539 2101.608 2103.4287 2094.3252 
2049 2043 2105.5095 2117.4741 2114.3529 2089.3833 2115.3933 2101.8681 2112.5322 2117.9943 2102.6484 2098.4868 2118.7746 2103.6888 2103.4287 2098.7469 
2048 2043 2104.209 2117.4741 2119.815 2094.8454 2109.6711 2100.8277 2109.411 2116.6938 2102.3883 2106.81 2121.3756 2109.1509 2103.9489 2099.5272 
2045 2040 2104.209 2109.6711 2115.9135 2094.3252 2100.3075 2097.4464 2109.411 2114.8731 2102.9085 2112.7923 2122.1559 2105.7696 2105.7696 2096.1459 
2044 2041 2104.7292 2108.6307 2116.6938 2089.9035 2101.3479 2100.3075 2110.1913 2111.7519 2103.9489 2104.7292 2121.6357 2102.9085 2101.3479 2096.9262 
2044 2040 2103.1686 2113.3125 2120.8554 2087.3025 2106.0297 2100.8277 2108.6307 2114.3529 2104.209 2101.8681 2120.8554 2105.5095 2097.4464 2097.9666 
2044 2040 2099.7873 2107.3302 2117.9943 2088.603 2109.411 2095.3656 2107.3302 2114.8731 2102.1282 2108.1105 2122.1559 2105.7696 2099.7873 2093.0247 
2044 2042 2098.4868 2104.7292 2116.6938 2090.9439 2111.4918 2095.3656 2105.2494 2105.2494 2097.7065 2107.0701 2122.6761 2102.9085 2097.4464 2089.9035 
2044 2043 2096.6661 2113.8327 2114.613 2086.5222 2107.3302 2099.007 2102.1282 2100.8277 2094.0651 2097.4464 2119.0347 2096.406 2086.5222 2089.1232 
2043 2043 2094.0651 2116.4337 2107.0701 2080.5399 2104.209 2096.6661 2103.4287 2109.1509 2096.6661 2098.4868 2116.9539 2090.9439 2084.4414 2084.7015 
2043 2043 2093.2848 2115.1332 2107.0701 2080.5399 2107.3302 2094.5853 2106.0297 2113.0524 2102.1282 2107.0701 2119.5549 2096.9262 2092.5045 2084.9616 
2043 2043 2095.1055 2120.5953 2113.5726 2079.4995 2112.5322 2095.6257 2103.9489 2112.5322 2102.1282 2107.5903 2120.3352 2107.3302 2098.2267 2089.3833 
2042 2041 2094.8454 2119.0347 2107.8504 2070.396 2110.1913 2090.9439 2099.7873 2115.6534 2100.0474 2105.2494 2119.5549 2107.0701 2100.5676 2086.7823 
2042 2039 2094.3252 2113.5726 2100.0474 2064.9339 2102.3883 2087.5626 2096.9262 2116.9539 2103.4287 2114.0928 2121.1155 2102.6484 2105.5095 2083.9212 
2042 2038 2094.5853 2116.9539 2101.0878 2064.4137 2106.0297 2089.9035 2094.3252 2115.1332 2103.6888 2121.1155 2121.3756 2103.1686 2109.411 2085.7419 
2042 2038 2094.0651 2116.9539 2095.3656 2057.6511 2115.1332 2087.0424 2094.8454 2113.5726 2096.406 2112.7923 2121.1155 2099.5272 2107.3302 2082.3606 
2043 2035 2092.7646 2107.3302 2084.4414 2048.2875 2112.7923 2081.0601 2098.4868 2112.5322 2095.8858 2104.7292 2122.416 2090.6838 2107.3302 2078.4591 
2043 2035 2093.5449 2100.0474 2080.0197 2042.0451 2104.4691 2080.2798 2099.5272 2113.3125 2102.6484 2106.2898 2122.416 2086.7823 2112.5322 2083.1409 
2042 2034 2097.7065 2102.3883 2082.6207 2043.6057 2103.6888 2084.4414 2101.608 2118.5145 2108.1105 2115.6534 2122.6761 2092.7646 2123.7165 2091.7242 
2041 2033 2104.9893 2103.9489 2089.3833 2047.2471 2105.5095 2087.8227 2105.2494 2122.9362 2115.3933 2117.9943 2123.4564 2100.0474 2133.8604 2100.0474 
2042 2030 2108.6307 2102.1282 2097.7065 2045.1663 2104.9893 2089.9035 2109.6711 2123.9766 2125.017 2116.4337 2122.1559 2106.0297 2136.2013 2108.3706 
2040 2030 2105.2494 2100.8277 2102.9085 2042.0451 2099.2671 2088.603 2111.7519 2121.3756 2124.4968 2118.2544 2123.4564 2110.1913 2132.82 2109.411 
2040 2030 2103.4287 2100.3075 2107.8504 2048.8077 2090.9439 2088.3429 2108.8908 2115.9135 2115.6534 2115.3933 2123.9766 2114.0928 2130.7392 2107.3302 
2037 2029 2108.6307 2104.4691 2120.3352 2060.7723 2095.6257 2092.2444 2106.2898 2113.5726 2116.6938 2117.4741 2122.416 2121.6357 2134.6407 2113.3125 
2036 2028 2113.3125 2111.4918 2132.82 2067.0147 2108.6307 2095.1055 2108.3706 2115.9135 2127.0978 2128.6584 2123.4564 2128.9185 2137.2417 2120.5953 
2034 2029 2111.2317 2111.2317 2133.0801 2066.2344 2109.9312 2093.5449 2109.9312 2116.1736 2128.9185 2126.0574 2126.5776 2127.0978 2133.0801 2116.6938 
2032 2028 2107.5903 2105.7696 2127.0978 2059.992 2101.3479 2090.9439 2108.3706 2114.3529 2124.2367 2116.1736 2125.2771 2120.8554 2127.8781 2110.9716 
2026 2026 2104.9893 2107.8504 2126.0574 2057.1309 2099.5272 2090.4237 2106.81 2113.8327 2122.6761 2124.4968 2122.1559 2121.1155 2128.1382 2111.7519 
2023 2027 2103.9489 2115.6534 2124.4968 2059.992 2101.3479 2090.1636 2106.2898 2113.5726 2120.0751 2127.618 2123.1963 2121.3756 2130.4791 2109.411 
2018 2030 2103.6888 2117.214 2121.3756 2059.2117 2101.8681 2089.6434 2107.0701 2115.3933 2120.3352 2116.1736 2122.9362 2117.9943 2131.5195 2104.7292 
2018 2032 2101.3479 2112.7923 2120.3352 2056.8708 2103.1686 2088.3429 2106.5499 2120.0751 2123.9766 2120.3352 2122.1559 2117.4741 2132.0397 2105.5095 
2019 2038 2104.4691 2113.3125 2112.2721 2064.4137 2097.1863 2087.5626 2102.6484 2122.6761 2126.3175 2128.9185 2125.5372 2120.8554 2129.6988 2105.5095 
2021 2042 2107.3302 2113.5726 2115.9135 2065.194 2101.0878 2087.3025 2104.209 2117.7342 2127.0978 2117.214 2121.6357 2119.0347 2128.3983 2103.4287 
2026 2047 2102.6484 2106.2898 2111.7519 2060.7723 2101.608 2083.401 2102.3883 2115.6534 2124.4968 2119.0347 2121.6357 2111.4918 2121.8958 2097.9666 
2029 2046 2104.209 2106.2898 2104.9893 2060.5122 2101.3479 2089.3833 2108.8908 2125.7973 2131.7796 2119.815 2122.9362 2104.7292 2119.815 2098.4868 
2037 2045 2118.7746 2122.6761 2119.0347 2077.1586 2116.4337 2108.1105 2126.3175 2137.5018 2151.5472 2121.6357 2121.8958 2114.3529 2132.82 2114.8731 
2041 2045 2125.2771 2133.6003 2132.82 2092.5045 2132.5599 2117.9943 2137.2417 2136.9816 2159.0901 2140.8831 2121.8958 2126.8377 2145.0447 2123.9766 
2049 2045 2119.0347 2124.4968 2122.9362 2082.8808 2124.7569 2112.5322 2134.6407 2133.8604 2154.1482 2149.9866 2123.4564 2119.0347 2139.5826 2116.6938 
2055 2046 2117.214 2117.9943 2116.6938 2072.7369 2108.3706 2112.5322 2133.3402 2135.421 2156.229 2135.6811 2123.7165 2109.1509 2132.5599 2116.9539 
2063 2042 2122.1559 2125.5372 2128.1382 2081.0601 2110.7115 2120.0751 2135.9412 2133.6003 2160.3906 2131.7796 2123.1963 2115.1332 2134.6407 2125.017 
2067 2041 2122.1559 2128.9185 2133.6003 2086.5222 2120.8554 2120.8554 2134.9008 2130.7392 2158.3098 2141.1432 2122.6761 2119.5549 2133.8604 2122.9362 
2071 2044 2117.214 2121.1155 2128.3983 2077.6788 2116.4337 2116.1736 2130.7392 2129.1786 2155.4487 2133.8604 2122.9362 2112.012 2126.0574 2118.2544 
2074 2044 2118.2544 2117.9943 2126.5776 2072.4768 2110.1913 2115.6534 2129.6988 2125.017 2156.229 2126.5776 2123.1963 2110.7115 2122.6761 2121.6357 
2075 2046 2123.1963 2123.4564 2132.5599 2077.9389 2117.214 2121.8958 2134.3806 2125.017 2156.229 2137.7619 2122.9362 2118.7746 2128.6584 2127.618 
2076 2047 2122.9362 2130.4791 2138.2821 2082.8808 2121.6357 2126.8377 2137.2417 2128.9185 2156.4891 2145.825 2123.1963 2124.7569 2133.8604 2130.4791 
2076 2048 2116.4337 2130.9993 2133.6003 2078.7192 2117.4741 2124.4968 2131.7796 2126.3175 2154.6684 2143.224 2123.1963 2122.416 2129.9589 2125.2771 
2074 2047 2114.613 2129.1786 2129.1786 2077.9389 2120.3352 2120.5953 2127.618 2124.4968 2149.4664 2142.1836 2123.4564 2120.0751 2124.7569 2120.3352 
2073 2047 2119.2948 2134.1205 2132.0397 2083.6611 2123.4564 2120.3352 2127.8781 2128.6584 2148.426 2142.4437 2123.1963 2124.2367 2127.3579 2122.6761 
2069 2046 2119.0347 2137.2417 2132.0397 2082.3606 2120.0751 2119.2948 2126.0574 2128.1382 2149.4664 2138.022 2122.6761 2123.9766 2128.6584 2122.1559 
2066 2045 2111.7519 2132.0397 2127.3579 2077.4187 2117.4741 2114.8731 2121.8958 2124.2367 2147.1255 2135.1609 2123.1963 2118.7746 2122.9362 2115.3933 
2061 2044 2109.6711 2126.8377 2125.5372 2079.7596 2116.1736 2112.5322 2121.3756 2124.2367 2146.0851 2133.6003 2123.1963 2116.9539 2120.8554 2113.3125 
2058 2046 2115.9135 2129.9589 2126.8377 2084.9616 2114.0928 2114.3529 2122.1559 2125.5372 2147.9058 2123.9766 2122.416 2117.7342 2123.7165 2116.4337 
2055 2048 2118.2544 2129.4387 2127.0978 2085.2217 2113.5726 2115.1332 2121.8958 2125.7973 2146.6053 2121.8958 2121.6357 2117.214 2123.4564 2115.1332 
2050 2048 2115.6534 2125.5372 2128.1382 2084.9616 2117.4741 2113.8327 2122.416 2124.7569 2145.825 2136.7215 2121.6357 2116.6938 2122.1559 2114.8731 
2046 2046 2119.2948 2129.4387 2132.2998 2091.4641 2117.9943 2117.214 2125.2771 2122.6761 2149.7265 2141.4033 2124.4968 2117.214 2125.2771 2121.6357 
2043 2046 2122.9362 2136.2013 2142.1836 2098.4868 2111.7519 2123.1963 2130.4791 2123.7165 2152.8477 2136.7215 2125.2771 2123.7165 2130.4791 2129.6988 
2041 2046 2121.3756 2136.4614 2151.8073 2100.5676 2107.0701 2122.416 2131.5195 2127.8781 2151.8073 2136.9816 2123.1963 2133.3402 2133.0801 2133.6003 
2037 2044 2123.1963 2136.2013 2162.2113 2107.8504 2112.2721 2121.8958 2127.3579 2124.4968 2151.027 2133.3402 2125.7973 2142.1836 2134.1205 2136.2013 
2037 2044 2129.1786 2140.1028 2180.9385 2120.0751 2112.5322 2122.6761 2127.0978 2117.214 2147.3856 2125.2771 2128.1382 2155.4487 2132.82 2138.8023 
2035 2043 2129.4387 2139.5826 2198.3652 2124.2367 2101.0878 2121.6357 2130.219 2115.1332 2141.1432 2126.3175 2126.5776 2169.234 2129.4387 2140.3629 
2033 2043 2127.3579 2136.9816 2208.5091 2123.7165 2101.608 2122.9362 2124.7569 2111.7519 2139.0624 2133.0801 2127.618 2180.6784 2129.4387 2141.6634 
2037 2044 2131.5195 2145.0447 2218.3929 2129.9589 2116.4337 2126.8377 2119.5549 2111.7519 2143.224 2139.0624 2131.5195 2194.7238 2134.3806 2147.1255 
2037 2045 2136.2013 2159.3502 2228.2767 2138.2821 2118.5145 2130.219 2127.618 2122.6761 2150.5068 2143.7442 2130.9993 2207.7288 2143.224 2155.7088 
2037 2043 2136.7215 2160.9108 2233.7388 2139.0624 2111.2317 2134.3806 2133.0801 2126.8377 2154.4083 2144.2644 2129.6988 2208.5091 2149.4664 2158.5699 
2039 2045 2133.8604 2152.5876 2227.7565 2132.2998 2116.9539 2135.6811 2125.2771 2119.5549 2151.5472 2148.426 2131.2594 2201.4864 2146.3452 2152.5876 
2040 2044 2128.9185 2150.2467 2210.5899 2125.017 2125.7973 2126.8377 2118.7746 2118.2544 2144.5245 2150.7669 2131.5195 2191.0824 2137.2417 2142.4437 
2041 2043 2122.1559 2153.628 2195.5041 2123.7165 2119.0347 2118.2544 2119.815 2122.1559 2140.623 2143.7442 2127.8781 2178.3375 2131.2594 2132.82 
2043 2043 2118.5145 2155.1886 2189.2617 2122.9362 2112.7923 2118.2544 2119.0347 2122.6761 2143.224 2138.2821 2126.5776 2168.9739 2132.82 2128.9185 
2044 2042 2116.6938 2147.3856 2178.0774 2113.3125 2114.3529 2117.214 2115.3933 2119.5549 2142.7038 2134.6407 2129.1786 2159.6103 2128.6584 2126.8377 
2043 2039 2113.0524 2130.9993 2156.4891 2096.9262 2114.3529 2109.6711 2113.0524 2114.0928 2133.3402 2126.8377 2127.3579 2146.6053 2114.613 2116.9539 
2042 2038 2112.5322 2126.8377 2144.5245 2089.6434 2113.5726 2108.6307 2113.5726 2113.3125 2130.7392 2120.5953 2122.1559 2138.022 2107.8504 2110.7115 
2041 2037 2117.4741 2140.3629 2149.9866 2097.7065 2114.613 2117.214 2118.5145 2120.3352 2139.8427 2123.7165 2122.9362 2137.7619 2112.012 2117.9943 
2041 2036 2121.8958 2146.8654 2153.628 2104.7292 2117.7342 2121.8958 2124.4968 2123.7165 2142.9639 2130.9993 2124.4968 2135.6811 2116.1736 2125.017 
2041 2036 2120.8554 2135.6811 2144.2644 2096.1459 2118.5145 2120.5953 2125.2771 2120.5953 2140.623 2130.7392 2123.7165 2128.3983 2116.6938 2123.1963 
2040 2033 2117.214 2129.4387 2138.2821 2091.204 2118.7746 2122.9362 2123.7165 2121.1155 2144.5245 2130.4791 2123.4564 2128.3983 2117.7342 2123.4564 
2040 2034 2115.1332 2137.5018 2142.1836 2099.7873 2120.8554 2127.0978 2125.7973 2124.7569 2151.2871 2137.5018 2123.7165 2132.0397 2118.7746 2127.8781 
2039 2034 2112.7923 2142.1836 2140.8831 2098.4868 2120.3352 2127.0978 2125.5372 2120.8554 2148.9462 2135.9412 2124.4968 2128.3983 2116.4337 2127.0978 
2038 2034 2108.8908 2136.9816 2133.8604 2085.7419 2117.7342 2122.9362 2117.4741 2110.4514 2139.0624 2128.1382 2124.7569 2123.7165 2106.81 2121.6357 
2035 2037 2108.6307 2132.2998 2130.7392 2083.9212 2115.1332 2121.6357 2112.2721 2109.1509 2134.9008 2131.5195 2124.4968 2126.0574 2100.8277 2119.0347 
2034 2038 2108.8908 2131.2594 2130.7392 2086.002 2114.8731 2125.017 2116.9539 2116.9539 2141.1432 2131.7796 2124.7569 2124.7569 2104.209 2119.2948 
2035 2040 2106.2898 2132.82 2129.6988 2078.7192 2119.5549 2126.5776 2119.815 2118.2544 2143.224 2128.3983 2124.2367 2121.8958 2101.3479 2118.2544 
2035 2040 2105.2494 2135.9412 2123.4564 2075.0778 2126.0574 2124.7569 2115.3933 2113.8327 2135.6811 2129.9589 2123.1963 2122.416 2095.1055 2114.3529 
2034 2039 2107.0701 2135.6811 2119.2948 2079.4995 2121.3756 2125.2771 2116.9539 2119.815 2135.421 2127.618 2123.1963 2121.3756 2099.7873 2113.0524 
2036 2040 2108.8908 2139.8427 2125.017 2083.401 2114.8731 2129.9589 2124.2367 2129.6988 2144.0043 2132.5599 2122.9362 2125.5372 2108.6307 2117.9943 
2036 2038 2115.1332 2150.7669 2132.82 2088.8631 2126.3175 2130.4791 2123.4564 2129.1786 2145.0447 2146.6053 2122.9362 2134.3806 2111.4918 2123.1963 
2036 2037 2119.815 2153.1078 2133.0801 2092.5045 2137.7619 2127.618 2119.815 2127.3579 2140.1028 2145.0447 2123.4564 2135.9412 2111.7519 2121.3756 
2036 2037 2113.3125 2149.9866 2132.2998 2091.9843 2133.6003 2131.7796 2122.6761 2131.2594 2142.1836 2137.5018 2121.8958 2135.6811 2115.1332 2121.3756 
2038 2037 2110.4514 2150.5068 2133.3402 2091.9843 2126.3175 2133.0801 2124.7569 2132.82 2144.7846 2136.2013 2121.8958 2136.7215 2115.6534 2124.2367 
2039 2036 2114.8731 2149.7265 2131.7796 2093.0247 2126.5776 2124.4968 2120.8554 2129.6988 2136.2013 2123.7165 2124.2367 2130.7392 2112.2721 2119.815 
2039 2036 2114.613 2144.0043 2128.3983 2091.204 2128.1382 2118.7746 2117.7342 2126.8377 2128.9185 2117.214 2123.7165 2122.416 2108.1105 2113.8327 
2037 2035 2111.2317 2139.5826 2125.2771 2086.5222 2122.6761 2120.5953 2115.3933 2127.8781 2131.7796 2125.5372 2122.416 2120.3352 2106.2898 2114.0928 
2036 2038 2113.3125 2134.6407 2121.1155 2083.1409 2112.2721 2117.214 2114.3529 2130.219 2132.5599 2115.3933 2122.9362 2116.6938 2101.8681 2111.2317 
2035 2038 2115.3933 2131.5195 2121.8958 2083.9212 2113.5726 2115.6534 2117.4741 2129.4387 2132.0397 2108.1105 2121.8958 2112.2721 2100.0474 2108.1105 
2037 2036 2115.1332 2135.9412 2126.5776 2087.0424 2123.7165 2122.9362 2118.7746 2124.4968 2136.7215 2125.7973 2122.6761 2115.6534 2105.7696 2113.5726 
2037 2038 2114.613 2138.2821 2126.5776 2088.603 2119.815 2125.5372 2115.9135 2124.4968 2141.1432 2134.3806 2125.5372 2122.1559 2110.9716 2116.6938 
2037 2040 2110.9716 2132.0397 2122.1559 2086.5222 2113.0524 2122.1559 2115.9135 2126.0574 2138.8023 2125.2771 2125.5372 2119.815 2107.3302 2111.4918 
2034 2039 2108.3706 2129.4387 2121.8958 2083.9212 2116.4337 2122.6761 2118.7746 2124.7569 2134.6407 2128.1382 2122.9362 2116.1736 2100.5676 2110.1913 
2037 2038 2112.012 2139.0624 2128.3983 2088.603 2124.2367 2126.5776 2118.7746 2127.3579 2136.9816 2137.5018 2124.2367 2121.8958 2106.5499 2115.6534 
2036 2036 2117.4741 2147.1255 2132.82 2095.3656 2129.1786 2127.618 2119.2948 2132.0397 2140.1028 2133.0801 2126.5776 2127.0978 2117.9943 2117.9943 
2034 2036 2117.9943 2145.3048 2131.2594 2093.805 2125.2771 2127.618 2119.815 2130.4791 2136.4614 2130.219 2125.2771 2126.8377 2115.9135 2114.0928 
2034 2038 2113.5726 2139.8427 2126.3175 2087.5626 2116.9539 2123.7165 2114.8731 2125.7973 2130.219 2131.5195 2123.4564 2124.2367 2105.7696 2107.8504 
2035 2038 2113.0524 2136.7215 2122.6761 2087.3025 2120.5953 2115.3933 2110.1913 2126.8377 2127.8781 2126.5776 2123.1963 2122.6761 2108.1105 2105.7696 
2032 2038 2114.8731 2139.3225 2123.7165 2090.4237 2129.4387 2113.5726 2111.4918 2131.5195 2126.8377 2122.416 2122.416 2122.416 2116.1736 2107.0701 
2034 2038 2113.0524 2144.0043 2123.4564 2092.2444 2122.6761 2116.1736 2113.3125 2133.3402 2125.017 2124.2367 2122.9362 2123.4564 2114.613 2106.81 
2034 2037 2112.2721 2143.7442 2120.3352 2096.1459 2116.6938 2115.9135 2113.8327 2134.3806 2124.2367 2127.618 2123.4564 2123.7165 2112.012 2105.2494 
2033 2036 2116.4337 2137.2417 2116.6938 2097.4464 2125.5372 2115.3933 2116.4337 2137.2417 2123.1963 2123.1963 2122.6761 2120.0751 2112.7923 2104.209 
2034 2038 2118.5145 2138.2821 2119.0347 2097.4464 2130.9993 2117.9943 2118.5145 2140.1028 2124.4968 2113.8327 2124.7569 2118.7746 2113.0524 2106.5499 
2032 2037 2116.6938 2144.2644 2121.3756 2102.9085 2122.6761 2118.2544 2119.815 2138.5422 2128.1382 2113.8327 2126.5776 2119.815 2114.613 2109.411 
2033 2038 2115.6534 2138.022 2116.4337 2104.9893 2115.1332 2116.4337 2121.1155 2135.1609 2128.6584 2121.8958 2122.9362 2116.4337 2115.9135 2109.1509 
2034 2039 2115.9135 2131.5195 2112.012 2101.0878 2119.5549 2117.7342 2120.5953 2133.8604 2126.8377 2121.6357 2121.8958 2110.7115 2113.8327 2107.8504 
2033 2040 2116.1736 2137.5018 2116.1736 2102.6484 2120.5953 2119.815 2120.0751 2130.219 2124.4968 2113.0524 2123.9766 2111.4918 2112.5322 2109.1509 
2032 2041 2119.2948 2141.9235 2122.9362 2109.411 2116.4337 2120.3352 2121.8958 2127.0978 2122.1559 2111.7519 2123.4564 2117.214 2114.0928 2112.7923 
2032 2041 2123.1963 2140.3629 2128.9185 2109.9312 2121.8958 2123.1963 2121.6357 2129.6988 2123.1963 2118.2544 2121.8958 2120.5953 2115.1332 2115.9135 
2032 2041 2121.3756 2139.5826 2129.6988 2106.81 2126.8377 2124.4968 2119.0347 2130.7392 2122.416 2112.5322 2122.6761 2118.2544 2114.613 2114.613 
2033 2039 2119.0347 2138.5422 2126.0574 2106.5499 2120.0751 2124.2367 2120.8554 2129.6988 2120.8554 2104.4691 2123.1963 2115.3933 2113.8327 2112.2721 
2031 2038 2119.0347 2135.9412 2123.9766 2103.4287 2117.4741 2124.7569 2120.3352 2129.1786 2122.1559 2113.3125 2123.1963 2115.3933 2108.8908 2110.7115 
2032 2038 2114.613 2132.82 2119.815 2096.1459 2124.7569 2123.1963 2114.3529 2125.017 2119.2948 2120.3352 2122.416 2109.6711 2099.7873 2105.2494 
2031 2040 2108.6307 2127.8781 2114.613 2093.2848 2121.3756 2119.2948 2114.613 2120.3352 2110.4514 2105.5095 2121.8958 2102.1282 2095.8858 2100.5676 
2033 2040 2112.012 2127.618 2117.4741 2096.1459 2109.1509 2121.1155 2121.6357 2121.1155 2107.5903 2095.8858 2122.416 2103.4287 2098.4868 2103.9489 
2033 2040 2116.6938 2133.8604 2123.7165 2100.3075 2113.5726 2125.5372 2118.7746 2122.1559 2111.4918 2107.0701 2123.1963 2109.411 2102.9085 2107.8504 
2033 2041 2116.6938 2134.6407 2122.1559 2103.6888 2130.4791 2121.3756 2112.012 2125.5372 2113.5726 2109.9312 2122.9362 2112.012 2107.8504 2107.8504 
2032 2042 2116.4337 2133.3402 2122.9362 2107.5903 2132.2998 2116.6938 2114.0928 2131.5195 2114.8731 2102.1282 2122.416 2116.1736 2110.4514 2108.6307 
2033 2041 2119.0347 2139.0624 2129.9589 2111.4918 2122.1559 2118.2544 2116.6938 2131.2594 2117.214 2104.9893 2122.416 2120.8554 2110.9716 2112.2721 
2033 2041 2122.9362 2144.0043 2132.0397 2115.3933 2120.3352 2120.0751 2115.9135 2132.82 2121.1155 2115.3933 2122.1559 2121.1155 2115.3933 2114.613 
2034 2041 2126.5776 2140.3629 2129.1786 2119.5549 2123.9766 2121.6357 2117.4741 2136.7215 2123.1963 2115.9135 2122.6761 2120.0751 2121.8958 2116.9539 
2035 2041 2128.1382 2140.1028 2131.7796 2123.1963 2123.4564 2126.8377 2121.6357 2134.6407 2123.9766 2109.6711 2122.9362 2121.1155 2123.1963 2121.8958 
2036 2042 2127.3579 2145.3048 2135.9412 2125.2771 2122.6761 2129.6988 2122.9362 2131.2594 2126.0574 2113.8327 2122.1559 2121.3756 2124.2367 2123.1963 
2038 2042 2123.9766 2138.8023 2128.1382 2122.1559 2122.1559 2124.4968 2121.1155 2129.1786 2123.7165 2112.5322 2121.8958 2114.8731 2122.1559 2116.6938 
2039 2044 2121.6357 2126.3175 2121.1155 2114.613 2117.214 2119.815 2119.5549 2123.1963 2116.9539 2098.2267 2122.6761 2108.3706 2114.3529 2114.613 
2040 2045 2123.9766 2128.3983 2129.9589 2114.8731 2113.8327 2122.416 2120.5953 2118.7746 2116.4337 2095.8858 2122.416 2114.613 2112.2721 2122.6761 
2042 2046 2124.4968 2133.0801 2133.8604 2117.9943 2109.9312 2125.5372 2122.1559 2116.9539 2117.7342 2103.6888 2121.6357 2116.9539 2114.0928 2125.017 
2041 2045 2120.0751 2123.1963 2120.8554 2108.8908 2103.6888 2123.4564 2118.5145 2109.6711 2108.6307 2101.608 2122.416 2103.4287 2102.3883 2114.613 
2043 2044 2116.1736 2119.0347 2116.4337 2102.3883 2110.1913 2122.9362 2115.1332 2106.5499 2102.1282 2094.8454 2121.6357 2097.9666 2091.7242 2108.6307 
2048 2047 2114.0928 2133.3402 2128.9185 2116.1736 2121.8958 2134.1205 2121.3756 2116.9539 2115.6534 2102.1282 2119.2948 2114.3529 2105.5095 2118.5145 
2049 2046 2114.613 2136.7215 2135.6811 2123.1963 2118.2544 2141.4033 2127.8781 2122.6761 2128.9185 2118.7746 2120.8554 2123.4564 2115.9135 2126.0574 
2051 2046 2118.5145 2128.9185 2131.2594 2110.9716 2111.7519 2134.3806 2123.4564 2116.9539 2121.1155 2115.6534 2123.7165 2116.1736 2104.9893 2120.5953 
2050 2044 2115.9135 2132.0397 2126.0574 2107.3302 2117.214 2128.3983 2114.613 2112.5322 2106.81 2101.3479 2122.6761 2113.8327 2100.3075 2114.613 
2050 2044 2109.6711 2135.1609 2122.9362 2111.4918 2111.7519 2126.3175 2112.7923 2113.8327 2104.7292 2102.6484 2121.6357 2113.5726 2105.2494 2113.8327 
2048 2044 2109.411 2130.4791 2123.1963 2107.3302 2105.2494 2124.7569 2114.613 2118.2544 2109.6711 2113.3125 2122.6761 2111.7519 2107.0701 2112.7923 
2051 2044 2115.6534 2132.0397 2126.0574 2106.0297 2118.7746 2125.2771 2115.1332 2120.5953 2112.012 2113.3125 2122.9362 2116.4337 2111.2317 2114.613 
2050 2044 2118.2544 2137.5018 2124.7569 2112.7923 2126.5776 2126.8377 2115.6534 2117.9943 2108.8908 2109.411 2122.416 2120.0751 2115.3933 2116.6938 
2050 2044 2117.7342 2134.3806 2121.1155 2113.5726 2116.6938 2124.4968 2114.613 2115.1332 2103.1686 2106.0297 2122.9362 2113.3125 2109.1509 2113.3125 
2050 2045 2118.5145 2133.3402 2122.9362 2112.2721 2108.6307 2123.9766 2114.8731 2120.8554 2106.81 2102.6484 2122.416 2110.9716 2108.3706 2112.2721 
2051 2046 2121.3756 2135.421 2122.9362 2114.0928 2102.9085 2124.2367 2117.214 2124.4968 2111.4918 2101.608 2122.6761 2113.8327 2113.8327 2115.9135 
2050 2047 2121.6357 2130.9993 2117.4741 2112.012 2106.81 2122.416 2118.7746 2119.815 2109.411 2107.0701 2123.1963 2109.1509 2112.012 2116.4337 
2049 2047 2118.5145 2124.4968 2112.7923 2106.5499 2116.1736 2120.0751 2115.1332 2115.1332 2107.0701 2112.2721 2122.1559 2102.9085 2107.3302 2113.8327 
2048 2043 2116.6938 2127.8781 2113.8327 2108.6307 2113.5726 2118.7746 2114.8731 2117.4741 2109.6711 2107.5903 2121.8958 2105.5095 2110.1913 2115.1332 
2048 2044 2115.3933 2129.9589 2112.2721 2110.1913 2104.209 2119.815 2120.5953 2121.8958 2112.5322 2097.4464 2123.1963 2103.9489 2110.4514 2113.0524 
2046 2044 2114.3529 2122.9362 2108.6307 2104.7292 2105.7696 2120.5953 2121.1155 2119.5549 2113.8327 2104.209 2123.7165 2097.9666 2106.0297 2110.9716 
2045 2042 2116.9539 2123.9766 2113.0524 2105.2494 2109.6711 2121.8958 2116.6938 2115.3933 2113.3125 2111.4918 2122.6761 2103.6888 2107.3302 2115.9135 
2043 2042 2120.8554 2133.6003 2123.7165 2112.7923 2109.6711 2128.3983 2117.7342 2116.6938 2110.9716 2108.8908 2122.416 2114.0928 2107.8504 2120.5953 
2042 2041 2120.8554 2136.7215 2128.9185 2114.3529 2110.9716 2132.0397 2118.2544 2115.3933 2108.6307 2113.5726 2122.6761 2113.0524 2103.6888 2119.0347 
2042 2044 2119.0347 2138.022 2125.7973 2110.9716 2112.2721 2128.3983 2115.1332 2110.4514 2105.7696 2119.815 2121.8958 2109.1509 2101.8681 2116.6938 
2042 2044 2118.5145 2138.5422 2120.3352 2107.0701 2116.6938 2123.9766 2114.8731 2110.4514 2102.6484 2117.9943 2121.1155 2109.1509 2101.3479 2114.613 
2043 2043 2118.7746 2138.022 2120.3352 2105.7696 2121.3756 2124.7569 2114.613 2114.613 2102.3883 2117.4741 2121.8958 2110.9716 2101.3479 2114.0928 
2041 2043 2117.9943 2143.4841 2123.4564 2110.4514 2122.1559 2126.8377 2110.9716 2115.3933 2102.3883 2118.7746 2122.9362 2115.9135 2106.81 2117.4741 
2043 2044 2116.1736 2146.0851 2118.5145 2111.4918 2119.0347 2125.2771 2110.1913 2118.7746 2101.8681 2115.1332 2122.416 2118.5145 2113.3125 2115.3933 
2043 2044 2114.0928 2140.8831 2111.4918 2105.7696 2114.8731 2123.4564 2112.012 2123.7165 2101.0878 2113.5726 2121.6357 2115.3933 2113.3125 2111.2317 
2043 2044 2111.7519 2136.9816 2110.1913 2104.7292 2120.0751 2121.6357 2108.6307 2121.8958 2096.9262 2116.4337 2122.416 2112.2721 2107.0701 2109.1509 
2044 2043 2115.1332 2135.6811 2103.4287 2112.012 2121.8958 2115.1332 2108.1105 2121.1155 2098.7469 2116.4337 2122.1559 2107.3302 2106.2898 2101.8681 
2044 2043 2120.8554 2145.3048 2110.9716 2119.2948 2121.8958 2123.7165 2111.2317 2125.5372 2104.4691 2118.5145 2122.1559 2112.7923 2110.9716 2107.8504 
2044 2043 2119.0347 2148.1659 2109.9312 2123.1963 2128.6584 2122.9362 2111.2317 2127.8781 2106.0297 2118.2544 2124.2367 2114.0928 2113.8327 2108.1105 
2044 2041 2111.7519 2137.2417 2095.3656 2117.7342 2126.8377 2114.3529 2110.4514 2125.7973 2102.3883 2110.4514 2123.9766 2104.209 2112.7923 2101.608 
2043 2041 2112.2721 2132.2998 2095.6257 2114.0928 2117.214 2114.8731 2109.411 2121.6357 2099.5272 2105.2494 2122.1559 2102.6484 2110.9716 2102.6484 
2043 2041 2117.4741 2138.5422 2108.1105 2117.7342 2117.9943 2118.2544 2108.3706 2122.1559 2102.1282 2111.4918 2122.9362 2110.7115 2113.5726 2108.6307 
2042 2040 2117.9943 2143.224 2108.6307 2121.3756 2128.1382 2114.0928 2111.2317 2123.7165 2106.0297 2117.214 2124.4968 2112.7923 2115.3933 2111.4918 
2043 2040 2115.3933 2142.4437 2106.81 2120.8554 2130.219 2113.8327 2113.0524 2119.815 2104.209 2115.9135 2123.7165 2111.2317 2112.5322 2111.4918 
2041 2039 2109.6711 2137.7619 2104.7292 2114.3529 2122.416 2116.4337 2106.0297 2114.0928 2096.9262 2111.2317 2122.9362 2107.5903 2107.5903 2106.2898 
2042 2039 2107.3302 2135.6811 2100.5676 2109.411 2119.2948 2108.8908 2103.6888 2114.8731 2094.3252 2109.411 2123.1963 2103.1686 2105.5095 2102.3883 
2043 2038 2111.4918 2140.623 2106.0297 2112.7923 2119.5549 2120.0751 2110.1913 2118.2544 2097.9666 2106.5499 2122.416 2106.2898 2106.81 2106.81 
2042 2038 2113.5726 2145.3048 2110.7115 2116.9539 2119.0347 2178.0774 2109.9312 2115.9135 2097.4464 2105.5095 2122.416 2112.7923 2112.012 2110.7115 
2043 2038 2111.4918 2145.5649 2104.209 2117.214 2127.3579 2224.1151 2102.3883 2115.6534 2095.1055 2114.3529 2122.9362 2113.0524 2115.6534 2108.6307 
2042 2039 2110.4514 2144.5245 2103.1686 2116.9539 2134.1205 2202.2667 2101.0878 2119.5549 2098.4868 2116.6938 2122.6761 2112.012 2113.3125 2104.4691 
2041 2037 2107.5903 2144.2644 2103.1686 2115.1332 2129.1786 2160.1305 2102.3883 2117.214 2098.2267 2107.3302 2122.416 2112.5322 2110.4514 2103.4287 
2041 2038 2106.5499 2145.0447 2097.7065 2114.8731 2126.3175 2151.2871 2101.608 2114.8731 2094.8454 2108.1105 2122.416 2113.8327 2115.6534 2105.2494 
2041 2040 2109.1509 2145.0447 2098.7469 2118.5145 2126.3175 2152.8477 2103.1686 2119.2948 2093.0247 2117.7342 2122.416 2112.7923 2120.3352 2103.1686 
2041 2040 2107.8504 2143.7442 2099.2671 2118.2544 2124.7569 2142.1836 2103.1686 2119.5549 2090.6838 2106.81 2122.1559 2105.7696 2112.7923 2095.8858 
2041 2039 2102.3883 2141.4033 2090.1636 2115.9135 2128.6584 2131.2594 2102.3883 2116.1736 2089.9035 2090.9439 2121.3756 2098.4868 2109.411 2092.2444 
2041 2039 2101.3479 2135.9412 2084.1813 2116.1736 2130.4791 2126.0574 2106.5499 2118.5145 2093.0247 2094.8454 2121.1155 2093.805 2116.1736 2092.5045 
2041 2039 2104.7292 2135.1609 2087.3025 2119.2948 2127.618 2128.1382 2113.0524 2125.5372 2100.0474 2106.0297 2122.1559 2095.8858 2122.6761 2095.3656 
2041 2039 2106.81 2137.5018 2089.9035 2122.416 2126.5776 2126.5776 2113.3125 2130.4791 2105.2494 2106.81 2122.9362 2099.7873 2122.9362 2099.5272 
2041 2040 2104.7292 2128.6584 2083.1409 2120.0751 2118.2544 2115.3933 2110.4514 2131.7796 2103.9489 2100.0474 2122.416 2090.4237 2119.815 2096.1459 
2043 2039 2102.3883 2121.8958 2076.3783 2114.613 2106.5499 2113.0524 2110.4514 2130.219 2102.3883 2100.3075 2122.6761 2080.0197 2116.6938 2092.2444 
2043 2039 2102.9085 2129.6988 2082.3606 2117.4741 2112.012 2121.6357 2110.7115 2125.7973 2105.7696 2105.2494 2124.2367 2087.5626 2117.9943 2097.9666 
2043 2039 2103.9489 2132.0397 2087.8227 2121.8958 2120.0751 2125.2771 2110.9716 2121.6357 2104.4691 2097.7065 2123.7165 2094.3252 2119.815 2102.3883 
2042 2039 2105.7696 2127.8781 2087.0424 2119.2948 2116.1736 2130.7392 2112.5322 2122.6761 2103.9489 2096.406 2121.6357 2091.7242 2117.7342 2102.9085 
2042 2039 2105.2494 2128.9185 2087.0424 2112.7923 2115.6534 2138.022 2107.8504 2122.1559 2104.9893 2108.1105 2121.6357 2091.7242 2114.0928 2101.608 
2042 2040 2100.8277 2127.8781 2085.4818 2111.7519 2119.2948 2134.6407 2101.3479 2119.5549 2101.0878 2108.6307 2122.416 2092.5045 2111.7519 2099.7873 
2040 2039 2104.209 2129.9589 2088.603 2118.7746 2115.6534 2133.3402 2107.3302 2125.2771 2105.2494 2099.7873 2122.416 2094.0651 2116.6938 2106.2898 
2039 2039 2110.4514 2137.7619 2095.8858 2120.0751 2113.8327 2138.5422 2113.5726 2128.6584 2111.4918 2104.9893 2122.416 2098.7469 2122.1559 2112.012 
2041 2040 2106.81 2136.7215 2090.6838 2110.9716 2118.5145 2133.0801 2106.0297 2120.5953 2102.9085 2107.8504 2122.9362 2096.406 2115.3933 2103.1686 
2040 2040 2101.8681 2131.7796 2081.5803 2108.3706 2119.815 2126.0574 2104.209 2119.815 2097.4464 2099.2671 2122.9362 2094.5853 2113.0524 2099.007 
2040 2039 2103.6888 2136.9816 2088.3429 2115.9135 2119.0347 2127.3579 2109.1509 2126.0574 2106.0297 2102.6484 2122.416 2101.3479 2120.0751 2106.2898 
2041 2040 2106.2898 2141.9235 2095.3656 2119.0347 2123.9766 2125.5372 2107.5903 2124.2367 2109.9312 2116.4337 2122.416 2105.7696 2123.1963 2107.3302 
2041 2041 2108.6307 2139.0624 2094.0651 2121.8958 2125.017 2126.3175 2106.81 2123.1963 2110.4514 2118.5145 2122.416 2106.2898 2123.7165 2106.81 
2041 2041 2112.7923 2141.9235 2099.7873 2129.9589 2122.1559 2135.1609 2114.613 2127.8781 2116.4337 2108.6307 2121.8958 2110.4514 2130.4791 2115.9135 
2042 2040 2112.7923 2150.2467 2104.9893 2136.9816 2129.6988 2136.2013 2117.4741 2128.1382 2119.2948 2112.7923 2121.6357 2113.8327 2136.2013 2119.815 
2042 2040 2110.4514 2147.3856 2098.4868 2136.2013 2134.3806 2126.5776 2113.5726 2122.9362 2115.1332 2118.5145 2121.6357 2107.5903 2130.9993 2112.7923 
2042 2040 2112.7923 2141.9235 2096.9262 2133.6003 2123.9766 2126.0574 2114.613 2117.7342 2113.0524 2106.81 2121.6357 2099.7873 2126.0574 2111.2317 
2042 2039 2116.9539 2145.3048 2104.4691 2134.9008 2122.9362 2130.7392 2117.4741 2116.9539 2113.5726 2104.209 2121.6357 2100.5676 2125.2771 2117.214 
2041 2039 2115.9135 2146.0851 2103.4287 2135.6811 2126.0574 2128.3983 2119.0347 2118.7746 2110.7115 2114.8731 2121.8958 2102.6484 2122.416 2118.2544 
2043 2040 2111.2317 2139.3225 2096.6661 2130.7392 2113.5726 2126.3175 2120.8554 2116.4337 2108.1105 2108.6307 2122.1559 2096.6661 2117.4741 2114.0928 
2042 2040 2110.9716 2137.7619 2097.9666 2125.2771 2111.7519 2125.2771 2118.5145 2108.1105 2106.2898 2097.4464 2122.1559 2091.9843 2113.8327 2111.4918 
2043 2042 2114.3529 2140.8831 2102.9085 2126.5776 2124.4968 2121.8958 2114.0928 2104.7292 2103.9489 2099.7873 2122.6761 2096.9262 2112.2721 2111.7519 
2043 2041 2113.8327 2138.022 2102.3883 2126.3175 2120.3352 2120.8554 2113.3125 2106.81 2103.4287 2096.9262 2122.9362 2099.007 2109.9312 2110.9716 
2042 2043 2109.411 2133.0801 2100.0474 2118.5145 2112.7923 2121.3756 2109.411 2106.0297 2102.6484 2100.8277 2122.1559 2095.8858 2109.1509 2109.1509 
2044 2043 2109.411 2138.8023 2105.5095 2120.3352 2122.416 2121.8958 2105.2494 2107.3302 2106.0297 2121.1155 2122.1559 2102.9085 2115.3933 2113.5726 
2043 2044 2110.9716 2141.9235 2109.6711 2126.0574 2122.9362 2123.1963 2109.6711 2109.411 2112.5322 2121.8958 2122.1559 2107.8504 2116.9539 2116.9539 
2041 2044 2107.8504 2132.2998 2103.6888 2116.4337 2110.9716 2123.1963 2112.012 2106.2898 2108.8908 2107.5903 2121.6357 2100.3075 2108.6307 2110.1913 
2041 2044 2105.2494 2128.6584 2097.1863 2106.2898 2113.0524 2119.5549 2106.0297 2103.6888 2097.9666 2106.2898 2122.1559 2099.7873 2106.81 2103.9489 
2041 2044 2103.9489 2133.3402 2095.3656 2109.6711 2121.1155 2113.5726 2101.608 2106.2898 2094.0651 2105.5095 2123.4564 2104.7292 2111.2317 2105.2494 
2041 2044 2101.608 2133.8604 2095.6257 2111.4918 2123.9766 2109.9312 2102.9085 2109.411 2096.406 2098.7469 2122.416 2101.8681 2109.1509 2109.1509 
2043 2044 2105.7696 2136.2013 2098.4868 2112.012 2129.1786 2114.0928 2107.0701 2113.3125 2102.9085 2105.7696 2121.3756 2103.6888 2112.5322 2114.8731 
2041 2041 2108.8908 2137.7619 2098.2267 2116.9539 2126.5776 2116.6938 2109.411 2114.8731 2107.8504 2115.6534 2121.8958 2106.81 2118.2544 2114.613 
2041 2041 2103.1686 2129.1786 2092.5045 2113.0524 2107.5903 2112.5322 2105.2494 2108.8908 2100.3075 2106.81 2122.1559 2098.7469 2108.3706 2105.5095 
2040 2040 2101.608 2127.0978 2093.2848 2107.8504 2106.2898 2112.7923 2102.3883 2108.6307 2094.0651 2095.1055 2121.8958 2097.9666 2101.608 2103.6888 
2041 2039 2105.7696 2130.4791 2095.8858 2111.4918 2126.0574 2112.7923 2104.209 2111.7519 2099.007 2097.1863 2122.1559 2102.9085 2107.3302 2107.0701 
2040 2039 2105.2494 2127.3579 2092.7646 2113.5726 2130.4791 2109.9312 2105.5095 2106.81 2100.5676 2102.6484 2122.416 2096.9262 2109.411 2104.4691 
2041 2040 2103.4287 2125.5372 2091.204 2110.1913 2115.9135 2110.1913 2105.2494 2100.3075 2096.1459 2100.5676 2122.1559 2091.9843 2104.4691 2102.1282 
2041 2040 2100.5676 2123.4564 2089.1232 2108.1105 2106.2898 2110.1913 2104.4691 2100.3075 2093.0247 2095.1055 2121.6357 2089.3833 2099.5272 2101.8681 
2042 2041 2097.1863 2117.9943 2085.7419 2108.1105 2111.2317 2107.5903 2105.2494 2102.9085 2094.5853 2098.4868 2122.1559 2084.7015 2099.5272 2099.5272 
2042 2040 2098.2267 2121.3756 2089.6434 2108.3706 2124.2367 2108.1105 2108.6307 2102.3883 2099.2671 2105.5095 2123.1963 2088.603 2103.6888 2101.0878 
2042 2040 2098.2267 2126.5776 2093.5449 2109.411 2119.2948 2109.9312 2108.6307 2102.3883 2100.5676 2099.007 2123.1963 2093.805 2104.209 2104.7292 
2044 2041 2095.6257 2124.7569 2090.9439 2107.8504 2099.5272 2108.8908 2104.7292 2104.9893 2098.2267 2095.8858 2123.1963 2091.204 2101.3479 2104.4691 
2045 2042 2096.6661 2127.618 2091.7242 2104.9893 2108.6307 2107.8504 2102.6484 2105.7696 2096.9262 2108.6307 2123.1963 2091.7242 2100.0474 2102.1282 
2042 2038 2099.7873 2134.9008 2095.6257 2106.2898 2133.8604 2107.0701 2101.3479 2104.209 2096.9262 2117.4741 2123.1963 2098.2267 2100.3075 2101.0878 
2042 2039 2101.0878 2134.6407 2095.1055 2108.8908 2127.3579 2106.0297 2100.5676 2103.9489 2092.5045 2109.6711 2122.9362 2101.0878 2102.1282 2101.0878 
2042 2039 2102.9085 2135.421 2095.8858 2109.9312 2113.0524 2106.2898 2102.3883 2106.0297 2087.5626 2102.6484 2125.017 2102.3883 2105.2494 2102.1282 
2043 2039 2103.4287 2139.0624 2097.4464 2109.1509 2120.8554 2105.5095 2102.1282 2108.3706 2090.4237 2104.209 2125.2771 2103.4287 2105.5095 2100.5676 
2042 2040 2104.209 2135.9412 2092.5045 2109.411 2123.4564 2103.1686 2102.9085 2114.613 2097.4464 2104.4691 2125.5372 2101.8681 2107.0701 2099.007 
2043 2043 2105.5095 2133.3402 2087.8227 2112.012 2112.012 2101.0878 2107.8504 2117.7342 2099.7873 2105.2494 2125.017 2100.3075 2110.9716 2099.5272 
2042 2042 2104.209 2135.1609 2088.3429 2111.7519 2116.1736 2098.7469 2106.5499 2112.2721 2095.8858 2104.4691 2124.7569 2097.7065 2110.4514 2097.9666 
2041 2044 2101.608 2129.1786 2085.2217 2108.8908 2127.618 2095.1055 2101.608 2108.8908 2091.9843 2095.3656 2125.5372 2092.7646 2106.81 2094.0651 
2043 2044 2106.0297 2124.2367 2082.1005 2111.7519 2121.1155 2097.7065 2106.0297 2115.9135 2095.3656 2095.6257 2125.5372 2091.204 2108.1105 2094.8454 
2043 2045 2114.0928 2133.3402 2088.0828 2119.5549 2114.0928 2103.6888 2113.5726 2121.3756 2103.9489 2110.1913 2125.5372 2095.1055 2112.7923 2101.608 
2044 2044 2112.7923 2137.2417 2091.9843 2121.1155 2119.5549 2101.3479 2110.7115 2115.9135 2105.2494 2108.1105 2125.7973 2095.3656 2111.7519 2103.9489 
2044 2046 2109.6711 2131.2594 2089.9035 2120.5953 2117.4741 2106.2898 2108.8908 2114.3529 2105.2494 2097.1863 2124.2367 2094.0651 2112.012 2101.8681 
2044 2044 2112.7923 2132.2998 2092.5045 2122.416 2111.2317 2121.8958 2115.3933 2120.0751 2110.9716 2106.0297 2122.9362 2097.9666 2116.4337 2105.5095 
2043 2043 2112.012 2136.4614 2095.6257 2119.815 2115.3933 2123.4564 2115.1332 2120.5953 2113.3125 2114.3529 2125.7973 2100.0474 2116.6938 2109.9312 
2043 2044 2107.5903 2132.2998 2091.204 2116.4337 2119.0347 2111.4918 2110.9716 2117.9943 2111.7519 2107.5903 2126.5776 2096.9262 2114.613 2107.0701 
2045 2044 2109.411 2130.9993 2090.4237 2117.7342 2121.8958 2109.9312 2112.5322 2117.4741 2110.7115 2109.6711 2124.7569 2098.4868 2115.3933 2105.5095 
2045 2046 2110.9716 2136.4614 2095.1055 2118.7746 2123.9766 2111.2317 2110.9716 2114.8731 2106.2898 2112.7923 2127.618 2102.1282 2115.6534 2106.2898 
2046 2046 2107.3302 2136.4614 2093.2848 2117.9943 2115.1332 2103.9489 2106.81 2113.5726 2100.3075 2102.1282 2126.8377 2101.0878 2114.8731 2101.3479 
2045 2046 2104.4691 2127.618 2089.3833 2118.2544 2111.4918 2097.4464 2106.2898 2113.5726 2099.7873 2098.7469 2121.6357 2098.4868 2114.613 2097.9666 
2045 2046 2106.0297 2128.9185 2098.4868 2123.4564 2123.1963 2097.7065 2107.3302 2113.8327 2105.5095 2109.9312 2123.1963 2103.9489 2116.4337 2104.7292 
2047 2048 2106.5499 2138.8023 2110.1913 2130.9993 2122.1559 2097.7065 2108.3706 2116.9539 2107.8504 2111.2317 2127.8781 2115.3933 2120.3352 2108.1105 
2047 2047 2107.0701 2135.6811 2116.4337 2138.8023 2108.6307 2095.3656 2111.7519 2121.3756 2106.0297 2101.3479 2126.5776 2123.1963 2124.7569 2105.2494 
2047 2047 2112.7923 2131.7796 2131.5195 2147.6457 2114.8731 2097.1863 2114.3529 2121.8958 2108.6307 2104.4691 2127.0978 2135.1609 2131.2594 2111.7519 
2045 2047 2123.1963 2145.5649 2151.2871 2160.9108 2128.3983 2101.3479 2118.5145 2122.1559 2113.8327 2112.5322 2130.4791 2156.4891 2142.1836 2127.0978 
2045 2046 2129.6988 2156.4891 2163.2517 2173.1355 2122.1559 2102.6484 2121.8958 2124.7569 2113.5726 2112.012 2130.219 2172.0951 2150.5068 2135.9412 
2043 2045 2131.5195 2154.6684 2170.7946 2177.8173 2112.2721 2102.1282 2120.8554 2128.9185 2115.1332 2110.4514 2128.6584 2173.6557 2150.7669 2137.5018 
2042 2046 2134.6407 2153.3679 2178.8577 2180.4183 2118.7746 2103.4287 2122.9362 2129.1786 2121.1155 2113.5726 2130.4791 2177.8173 2153.628 2141.6634 
2043 2047 2135.9412 2149.4664 2182.7592 2179.8981 2124.7569 2104.209 2127.618 2123.4564 2121.6357 2115.1332 2131.2594 2181.7188 2157.7896 2146.0851 
2039 2046 2133.6003 2144.7846 2182.239 2177.037 2119.5549 2101.608 2125.7973 2119.2948 2119.815 2113.5726 2129.6988 2175.7365 2153.1078 2146.0851 
2038 2046 2134.6407 2148.1659 2179.1178 2177.5572 2119.0347 2102.9085 2120.5953 2119.5549 2123.4564 2115.6534 2129.4387 2173.1355 2149.7265 2146.6053 
2041 2048 2136.7215 2150.5068 2175.2163 2179.1178 2120.5953 2108.6307 2121.6357 2118.7746 2126.3175 2119.815 2130.4791 2174.6961 2151.8073 2145.5649 
2042 2049 2134.6407 2146.8654 2171.0547 2173.1355 2115.9135 2108.8908 2123.4564 2114.8731 2123.9766 2121.1155 2132.0397 2164.032 2143.7442 2139.5826 
2042 2049 2130.219 2143.4841 2160.9108 2162.2113 2112.2721 2104.9893 2118.2544 2109.411 2120.0751 2116.1736 2130.7392 2146.8654 2129.4387 2131.2594 
2041 2050 2125.7973 2140.1028 2144.0043 2152.5876 2108.8908 2102.3883 2113.3125 2106.5499 2114.8731 2109.9312 2129.4387 2135.9412 2120.8554 2125.017 
2041 2050 2122.1559 2135.1609 2130.4791 2144.5245 2106.2898 2101.8681 2115.3933 2108.1105 2109.1509 2109.411 2130.7392 2129.9589 2117.9943 2122.9362 
2042 2049 2119.2948 2129.9589 2123.4564 2136.4614 2108.3706 2101.0878 2116.9539 2107.3302 2106.81 2109.6711 2130.219 2122.6761 2117.7342 2121.6357 
2042 2049 2115.6534 2127.3579 2117.7342 2130.7392 2115.3933 2099.5272 2114.0928 2106.2898 2106.2898 2104.4691 2125.5372 2114.8731 2116.9539 2117.214 
2042 2049 2113.5726 2130.7392 2112.5322 2131.7796 2120.8554 2099.2671 2110.7115 2108.3706 2105.7696 2101.608 2122.1559 2112.2721 2115.6534 2116.1736 
2042 2049 2118.5145 2137.7619 2112.5322 2133.6003 2116.9539 2103.9489 2111.2317 2112.7923 2112.7923 2111.2317 2125.2771 2117.214 2121.1155 2121.8958 
2041 2048 2118.7746 2138.5422 2108.1105 2127.3579 2110.9716 2101.8681 2113.0524 2114.0928 2117.7342 2116.9539 2128.3983 2116.1736 2120.0751 2119.2948 
2041 2048 2112.5322 2130.9993 2094.3252 2122.416 2112.5322 2093.5449 2108.6307 2109.411 2109.1509 2110.9716 2125.2771 2105.5095 2109.411 2109.9312 
2040 2047 2114.0928 2132.82 2093.5449 2128.9185 2113.3125 2098.2267 2108.6307 2107.0701 2108.8908 2110.1913 2121.1155 2107.3302 2118.5145 2115.6534 
2039 2044 2121.1155 2142.7038 2109.1509 2137.5018 2113.5726 2107.8504 2119.0347 2111.2317 2123.4564 2118.5145 2122.6761 2120.0751 2136.9816 2127.8781 
2040 2044 2119.0347 2141.4033 2112.5322 2136.7215 2121.6357 2107.5903 2125.7973 2114.613 2128.6584 2122.1559 2122.1559 2119.5549 2133.8604 2127.0978 
2039 2043 2113.8327 2132.82 2102.1282 2130.9993 2122.416 2106.5499 2122.416 2110.7115 2125.017 2120.3352 2119.2948 2109.6711 2122.6761 2122.416 
2038 2042 2115.6534 2137.7619 2107.5903 2136.7215 2121.1155 2115.3933 2124.7569 2108.1105 2132.0397 2126.3175 2119.2948 2116.1736 2127.618 2128.9185 
2039 2040 2120.8554 2152.3275 2123.7165 2150.7669 2132.5599 2124.7569 2132.0397 2109.9312 2140.3629 2136.4614 2118.7746 2132.5599 2139.3225 2138.2821 
2040 2040 2117.4741 2153.3679 2119.5549 2146.0851 2134.1205 2122.416 2128.9185 2105.2494 2134.6407 2130.7392 2119.0347 2128.6584 2137.5018 2132.5599 
2041 2038 2107.3302 2142.9639 2105.7696 2129.9589 2121.8958 2114.8731 2121.1155 2097.7065 2126.3175 2118.5145 2122.6761 2112.7923 2124.2367 2121.6357 
2040 2037 2102.9085 2137.7619 2108.1105 2130.4791 2120.8554 2114.613 2118.7746 2097.7065 2125.7973 2124.7569 2123.1963 2111.2317 2116.1736 2122.6761 
2040 2036 2103.9489 2138.5422 2109.411 2132.0397 2123.1963 2113.3125 2115.3933 2098.4868 2120.0751 2126.8377 2122.416 2113.8327 2111.7519 2121.8958 
2040 2035 2103.6888 2138.5422 2098.4868 2122.1559 2115.6534 2107.0701 2108.1105 2094.5853 2112.2721 2112.7923 2123.4564 2108.8908 2109.411 2112.5322 
2041 2035 2099.7873 2134.3806 2089.9035 2111.2317 2110.1913 2102.3883 2104.4691 2094.5853 2108.8908 2107.5903 2123.1963 2102.6484 2108.1105 2106.0297 
2042 2034 2097.7065 2130.4791 2087.5626 2107.5903 2111.4918 2098.7469 2105.7696 2100.3075 2104.7292 2112.7923 2123.7165 2099.7873 2102.6484 2104.9893 
2042 2033 2100.8277 2131.5195 2087.3025 2104.7292 2118.7746 2096.9262 2109.1509 2104.209 2101.8681 2112.012 2126.0574 2100.8277 2100.3075 2105.7696 
2042 2032 2102.3883 2134.3806 2087.0424 2101.8681 2122.416 2094.8454 2107.8504 2107.0701 2104.7292 2109.411 2124.4968 2102.9085 2104.7292 2107.0701 
2043 2033 2097.1863 2126.8377 2080.2798 2098.7469 2109.6711 2088.0828 2102.6484 2107.0701 2104.7292 2108.3706 2122.9362 2094.3252 2100.3075 2098.7469 
2041 2034 2091.7242 2113.3125 2070.1359 2091.4641 2098.4868 2083.401 2103.6888 2105.7696 2099.007 2100.5676 2123.9766 2083.401 2088.603 2085.7419 
2042 2033 2094.8454 2114.613 2070.396 2089.3833 2107.8504 2086.2621 2108.1105 2110.1913 2100.5676 2094.8454 2122.9362 2089.1232 2092.7646 2088.0828 
2040 2034 2100.3075 2125.2771 2077.4187 2097.1863 2116.1736 2086.7823 2106.5499 2114.3529 2105.5095 2099.2671 2124.2367 2097.4464 2104.209 2094.3252 
2039 2034 2104.209 2128.1382 2082.8808 2106.2898 2111.7519 2087.5626 2106.2898 2113.8327 2108.3706 2109.411 2127.8781 2095.1055 2104.4691 2094.8454 
2039 2033 2105.2494 2125.5372 2084.4414 2106.0297 2109.411 2091.204 2109.6711 2113.8327 2108.6307 2113.3125 2125.2771 2094.0651 2102.3883 2099.5272 
2038 2035 2106.81 2129.9589 2088.8631 2106.5499 2112.2721 2102.9085 2111.4918 2114.8731 2109.1509 2110.9716 2123.9766 2100.5676 2117.214 2111.4918 
2037 2034 2109.9312 2132.5599 2092.2444 2108.1105 2115.1332 2104.9893 2115.6534 2113.3125 2109.411 2114.613 2124.2367 2100.3075 2113.5726 2109.411 
2037 2034 2106.0297 2131.5195 2090.9439 2105.7696 2118.5145 2102.3883 2115.6534 2116.4337 2113.8327 2116.4337 2122.416 2100.3075 2113.0524 2107.5903 
2037 2035 2104.209 2126.8377 2087.3025 2105.2494 2114.0928 2101.3479 2111.2317 2115.3933 2113.0524 2111.2317 2122.9362 2095.1055 2110.1913 2102.6484 
2035 2035 2104.4691 2127.618 2086.7823 2104.9893 2110.1913 2100.0474 2105.7696 2108.6307 2104.209 2105.5095 2123.1963 2089.6434 2100.0474 2096.406 
2036 2036 2103.9489 2134.3806 2090.9439 2104.209 2113.0524 2098.7469 2104.4691 2110.4514 2103.6888 2108.8908 2122.416 2095.1055 2101.8681 2099.7873 
2036 2037 2107.5903 2135.1609 2098.4868 2107.3302 2116.6938 2102.3883 2109.1509 2119.5549 2113.0524 2116.6938 2123.1963 2107.5903 2113.3125 2110.7115 
2036 2038 2112.012 2131.5195 2101.3479 2108.8908 2120.3352 2102.3883 2108.8908 2118.7746 2113.5726 2117.214 2123.1963 2110.1913 2113.0524 2113.3125 
2035 2038 2109.411 2136.2013 2099.2671 2109.1509 2123.9766 2096.406 2103.1686 2115.3933 2110.9716 2112.7923 2122.6761 2106.0297 2108.1105 2107.8504 
2036 2038 2108.3706 2147.1255 2100.5676 2117.214 2123.9766 2096.9262 2106.2898 2122.9362 2117.9943 2117.9943 2122.416 2110.4514 2114.8731 2107.8504 
2036 2041 2107.3302 2141.1432 2095.3656 2115.3933 2116.1736 2093.805 2110.4514 2125.5372 2116.4337 2116.9539 2122.6761 2108.8908 2116.9539 2102.1282 
2039 2042 2101.8681 2127.618 2087.8227 2103.9489 2113.5726 2087.0424 2106.0297 2119.815 2109.6711 2106.81 2121.8958 2098.7469 2111.7519 2090.9439 
2035 2042 2102.9085 2133.0801 2092.7646 2108.6307 2116.4337 2087.0424 2102.3883 2124.2367 2115.1332 2109.9312 2121.1155 2100.5676 2113.8327 2092.2444 
2038 2042 2110.4514 2141.1432 2098.4868 2117.9943 2113.8327 2089.1232 2105.7696 2132.5599 2119.5549 2116.1736 2121.3756 2106.2898 2118.7746 2096.6661 
2038 2040 2109.9312 2131.5195 2090.9439 2109.1509 2107.0701 2085.4818 2105.7696 2126.0574 2108.8908 2100.5676 2120.8554 2098.7469 2113.3125 2093.2848 
2037 2039 2108.8908 2123.1963 2084.7015 2101.8681 2101.608 2082.8808 2101.3479 2115.9135 2102.3883 2087.8227 2121.6357 2091.7242 2106.2898 2094.8454 
2038 2040 2112.5322 2125.7973 2089.3833 2108.8908 2099.7873 2087.0424 2102.9085 2118.7746 2108.8908 2096.9262 2122.1559 2096.6661 2109.9312 2100.8277 
2037 2040 2113.0524 2124.4968 2089.1232 2108.3706 2101.608 2090.6838 2106.5499 2120.5953 2109.9312 2094.0651 2121.3756 2096.6661 2111.4918 2100.0474 
2038 2042 2107.5903 2124.7569 2088.0828 2107.3302 2110.7115 2093.805 2107.8504 2116.1736 2109.1509 2089.6434 2121.3756 2093.805 2110.7115 2097.7065 
2037 2041 2109.1509 2130.4791 2093.0247 2115.9135 2114.613 2098.2267 2109.9312 2119.2948 2118.5145 2107.3302 2122.1559 2095.3656 2112.5322 2099.7873 
2035 2041 2110.1913 2128.9185 2094.0651 2117.214 2111.7519 2101.8681 2112.5322 2122.6761 2127.618 2115.9135 2121.6357 2094.0651 2110.7115 2101.3479 
2037 2042 2103.1686 2121.8958 2087.8227 2104.209 2105.5095 2100.8277 2108.3706 2115.3933 2121.8958 2100.8277 2121.1155 2087.3025 2101.3479 2096.1459 
2033 2042 2103.4287 2122.9362 2086.2621 2101.0878 2100.3075 2101.0878 2107.3302 2112.012 2113.8327 2094.3252 2121.8958 2086.5222 2098.7469 2091.204 
2033 2042 2112.5322 2126.8377 2091.4641 2107.0701 2099.007 2103.4287 2112.2721 2115.1332 2114.3529 2102.9085 2121.6357 2091.4641 2103.4287 2094.8454 
2033 2040 2114.3529 2129.1786 2094.5853 2106.0297 2101.0878 2100.0474 2110.1913 2114.613 2115.9135 2102.1282 2121.3756 2093.0247 2104.4691 2101.3479 
2032 2038 2108.8908 2126.0574 2089.1232 2097.9666 2102.9085 2089.9035 2102.1282 2109.6711 2107.8504 2090.1636 2121.8958 2088.603 2098.2267 2097.9666 
2030 2036 2104.7292 2113.8327 2081.0601 2089.6434 2102.6484 2083.1409 2097.9666 2107.8504 2101.3479 2085.2217 2121.8958 2083.9212 2091.7242 2091.9843 
2029 2033 2104.7292 2109.6711 2082.6207 2089.6434 2102.3883 2083.1409 2099.7873 2111.7519 2107.0701 2090.9439 2122.1559 2086.7823 2096.1459 2093.805 
2027 2031 2106.0297 2119.0347 2088.3429 2096.6661 2099.2671 2088.0828 2102.9085 2117.214 2115.3933 2096.406 2122.416 2090.6838 2102.9085 2095.8858 
2025 2029 2103.6888 2114.613 2081.3202 2094.5853 2096.6661 2091.7242 2099.7873 2113.8327 2114.0928 2091.9843 2121.6357 2081.0601 2097.1863 2089.1232 
2024 2028 2102.1282 2103.1686 2074.8177 2088.8631 2096.406 2093.5449 2096.6661 2110.7115 2109.1509 2087.8227 2121.1155 2071.6965 2090.9439 2085.2217 
2022 2027 2108.3706 2110.1913 2081.0601 2093.0247 2090.4237 2094.0651 2100.0474 2114.0928 2109.9312 2089.1232 2121.8958 2077.1586 2093.2848 2089.1232 
2020 2026 2115.9135 2113.8327 2085.4818 2093.0247 2083.401 2089.9035 2103.6888 2114.0928 2112.5322 2086.002 2123.7165 2081.5803 2094.3252 2090.6838 
2017 2028 2118.2544 2102.6484 2082.8808 2084.7015 2083.401 2085.4818 2102.3883 2110.9716 2110.9716 2082.1005 2123.7165 2076.8985 2091.7242 2092.2444 
2013 2030 2121.1155 2096.406 2081.3202 2081.0601 2080.5399 2083.9212 2098.7469 2109.6711 2104.209 2079.7596 2125.017 2072.997 2087.3025 2095.1055 
2007 2032 2119.815 2094.5853 2080.5399 2078.199 2071.4364 2081.0601 2096.6661 2110.7115 2101.608 2075.8581 2127.8781 2072.2167 2079.7596 2093.5449 
2004 2033 2113.0524 2091.9843 2081.8404 2075.598 2071.9566 2080.8 2099.5272 2112.012 2108.8908 2080.5399 2125.5372 2074.0374 2076.3783 2091.4641 
1999 2035 2108.1105 2100.8277 2091.204 2082.8808 2085.4818 2089.1232 2105.7696 2112.2721 2116.1736 2092.7646 2120.8554 2082.6207 2083.6611 2094.8454 
1998 2036 2110.1913 2114.613 2103.1686 2095.6257 2097.9666 2099.7873 2109.6711 2112.5322 2117.7342 2096.406 2121.1155 2092.2444 2092.5045 2100.8277 
1996 2032 2112.2721 2121.6357 2109.411 2101.608 2096.406 2103.9489 2110.7115 2112.2721 2120.0751 2096.9262 2122.416 2097.7065 2094.5853 2102.9085 
1995 2030 2106.81 2124.2367 2109.411 2095.6257 2086.7823 2099.5272 2107.0701 2106.0297 2118.7746 2105.7696 2120.8554 2096.406 2087.8227 2098.2267 
1994 2027 2100.8277 2126.5776 2108.6307 2092.7646 2097.1863 2094.0651 2101.0878 2100.8277 2113.0524 2111.7519 2120.5953 2094.0651 2084.7015 2095.3656 
1996 2029 2102.1282 2127.0978 2108.8908 2098.2267 2109.6711 2094.3252 2100.3075 2103.9489 2112.5322 2105.2494 2122.6761 2096.1459 2090.1636 2099.5272 
1996 2029 2104.209 2128.3983 2109.411 2101.608 2101.8681 2095.3656 2101.608 2107.0701 2116.4337 2102.1282 2121.8958 2099.007 2092.5045 2101.0878 
1999 2035 2105.2494 2127.8781 2109.411 2097.9666 2097.4464 2089.1232 2097.4464 2108.1105 2113.8327 2105.7696 2123.1963 2097.4464 2087.8227 2097.9666 
2000 2042 2107.3302 2120.8554 2108.3706 2094.5853 2102.1282 2080.0197 2093.2848 2107.8504 2106.2898 2098.7469 2126.8377 2094.0651 2085.7419 2095.6257 
2003 2051 2103.1686 2112.5322 2103.6888 2088.0828 2092.2444 2073.5172 2091.9843 2102.3883 2100.0474 2085.2217 2127.0978 2088.603 2083.1409 2089.9035 
2002 2055 2102.6484 2113.5726 2101.8681 2085.2217 2083.6611 2075.3379 2095.3656 2103.6888 2104.7292 2089.1232 2126.8377 2088.3429 2081.3202 2087.5626 
2003 2061 2109.1509 2117.9943 2104.7292 2090.6838 2092.7646 2079.4995 2102.3883 2112.5322 2113.0524 2089.3833 2127.3579 2091.7242 2086.002 2092.2444 
2002 2062 2109.1509 2115.9135 2104.9893 2089.3833 2093.5449 2078.4591 2104.7292 2110.9716 2108.8908 2072.2167 2125.5372 2087.5626 2087.5626 2092.5045 
2001 2062 2106.2898 2116.6938 2110.1913 2089.6434 2088.0828 2081.5803 2102.3883 2102.3883 2106.2898 2084.1813 2122.416 2086.002 2084.9616 2091.204 
2002 2060 2109.6711 2122.6761 2118.7746 2099.5272 2095.1055 2086.7823 2100.3075 2100.0474 2115.3933 2112.7923 2122.9362 2094.5853 2086.7823 2096.6661 
2005 2055 2109.1509 2124.2367 2121.3756 2103.4287 2104.4691 2086.7823 2100.5676 2101.608 2120.5953 2108.8908 2123.9766 2099.5272 2091.204 2102.3883 
2005 2054 2105.2494 2128.1382 2124.4968 2103.6888 2103.6888 2090.9439 2106.0297 2103.1686 2122.9362 2099.7873 2121.8958 2102.9085 2095.1055 2107.3302 
2008 2058 2103.4287 2132.0397 2129.6988 2106.81 2100.0474 2095.6257 2108.6307 2100.3075 2125.017 2108.8908 2117.9943 2109.411 2092.5045 2108.8908 
2010 2061 2101.0878 2130.9993 2132.0397 2107.5903 2106.5499 2093.5449 2104.9893 2095.8858 2123.9766 2116.1736 2113.3125 2112.012 2088.8631 2103.9489 
2013 2065 2101.0878 2141.9235 2141.9235 2113.3125 2120.3352 2100.5676 2110.1913 2101.0878 2134.9008 2125.2771 2108.8908 2120.8554 2102.1282 2107.5903 
2014 2072 2100.8277 2155.9689 2153.8881 2124.7569 2125.2771 2111.4918 2120.0751 2107.8504 2149.7265 2135.1609 2106.2898 2137.7619 2118.5145 2117.4741 
2014 2077 2094.5853 2145.825 2146.3452 2119.5549 2119.5549 2103.4287 2118.7746 2108.8908 2147.6457 2132.0397 2107.3302 2137.2417 2112.2721 2111.7519 
2016 2086 2089.3833 2137.2417 2136.9816 2109.411 2122.416 2095.6257 2120.3352 2113.8327 2144.7846 2132.0397 2110.1913 2126.3175 2106.0297 2103.9489 
2017 2090 2087.0424 2152.5876 2144.5245 2116.9539 2132.82 2104.7292 2124.2367 2115.3933 2146.3452 2139.5826 2110.4514 2130.219 2115.6534 2110.1913 
2018 2095 2094.0651 2161.9512 2154.1482 2129.9589 2135.9412 2111.4918 2115.3933 2109.411 2139.8427 2139.0624 2113.8327 2142.4437 2123.9766 2120.0751 
2019 2093 2107.0701 2153.1078 2150.5068 2126.5776 2127.3579 2103.1686 2107.0701 2109.411 2135.1609 2127.8781 2120.8554 2141.9235 2123.1963 2124.2367 
2021 2088 2107.0701 2144.7846 2141.1432 2115.9135 2113.8327 2091.204 2106.81 2109.6711 2134.1205 2115.6534 2123.1963 2130.219 2116.6938 2120.8554 
2023 2087 2104.4691 2143.4841 2144.2644 2120.8554 2113.5726 2090.1636 2108.1105 2109.6711 2132.5599 2119.0347 2121.3756 2129.4387 2113.0524 2117.4741 
2026 2085 2112.2721 2141.4033 2149.7265 2126.3175 2121.8958 2091.204 2109.9312 2118.7746 2137.5018 2132.5599 2122.9362 2134.3806 2115.1332 2119.815 
2026 2084 2115.3933 2135.6811 2141.9235 2115.6534 2115.9135 2083.9212 2109.6711 2122.6761 2140.623 2127.8781 2128.1382 2126.0574 2113.5726 2116.9539 
2026 2082 2109.1509 2127.0978 2130.4791 2107.0701 2103.4287 2077.6788 2106.5499 2115.3933 2133.0801 2113.0524 2129.6988 2112.2721 2106.5499 2107.0701 
2026 2084 2106.81 2119.2948 2125.2771 2105.7696 2103.6888 2077.6788 2103.6888 2112.012 2126.8377 2108.1105 2127.3579 2103.4287 2100.0474 2102.6484 
2025 2084 2106.2898 2116.6938 2121.8958 2101.0878 2103.9489 2077.4187 2104.209 2114.0928 2126.8377 2104.209 2128.6584 2097.7065 2095.3656 2103.1686 
2022 2089 2106.0297 2120.8554 2122.9362 2100.0474 2098.4868 2079.7596 2108.6307 2111.7519 2127.3579 2100.8277 2130.7392 2099.7873 2090.9439 2102.1282 
2022 2093 2110.7115 2130.7392 2132.0397 2109.9312 2104.209 2087.3025 2110.7115 2109.6711 2128.1382 2107.5903 2129.1786 2110.7115 2094.5853 2104.9893 
2020 2097 2113.3125 2137.7619 2136.9816 2114.0928 2112.2721 2091.204 2104.4691 2110.1913 2128.6584 2112.7923 2128.1382 2115.6534 2101.608 2109.6711 
2019 2097 2111.4918 2137.5018 2134.9008 2111.2317 2113.5726 2091.4641 2101.8681 2111.7519 2129.1786 2111.2317 2129.1786 2115.1332 2102.9085 2109.9312 
2021 2092 2110.7115 2133.8604 2132.82 2109.1509 2113.5726 2089.1232 2107.0701 2115.3933 2130.9993 2112.7923 2126.3175 2113.8327 2102.1282 2108.6307 
2019 2090 2110.1913 2132.5599 2132.2998 2105.5095 2112.7923 2085.7419 2108.3706 2116.1736 2127.8781 2112.012 2123.1963 2109.6711 2100.0474 2107.5903 
2022 2088 2109.411 2135.421 2130.219 2103.6888 2109.6711 2089.1232 2105.2494 2115.6534 2124.7569 2111.2317 2123.4564 2109.9312 2097.9666 2108.6307 
2021 2086 2106.5499 2134.1205 2124.2367 2102.6484 2107.5903 2090.6838 2101.0878 2117.4741 2125.5372 2113.8327 2123.7165 2111.2317 2099.2671 2106.5499 
2019 2082 2105.2494 2127.8781 2120.0751 2100.8277 2111.7519 2086.5222 2100.8277 2119.5549 2123.9766 2109.6711 2123.1963 2106.0297 2101.0878 2103.4287 
2020 2079 2108.6307 2122.9362 2120.8554 2101.0878 2111.7519 2084.4414 2103.1686 2117.7342 2122.416 2101.3479 2123.1963 2105.5095 2102.1282 2106.0297 
2020 2075 2109.9312 2116.1736 2118.2544 2099.2671 2098.2267 2081.8404 2099.7873 2115.1332 2121.1155 2097.4464 2123.1963 2107.3302 2101.0878 2104.9893 
2018 2073 2110.7115 2114.3529 2114.613 2099.2671 2092.2444 2079.4995 2098.2267 2116.1736 2121.6357 2100.5676 2123.1963 2103.6888 2101.3479 2101.0878 
2017 2071 2113.3125 2117.9943 2117.7342 2105.5095 2107.8504 2079.7596 2099.007 2115.9135 2123.7165 2098.7469 2123.7165 2102.6484 2103.6888 2104.4691 
2015 2070 2115.1332 2117.9943 2122.6761 2110.9716 2116.4337 2078.9793 2097.1863 2114.8731 2126.8377 2095.8858 2123.1963 2107.8504 2108.1105 2110.9716 
2015 2070 2118.7746 2119.5549 2125.2771 2113.5726 2103.6888 2080.0197 2098.7469 2117.9943 2129.4387 2102.6484 2123.7165 2110.9716 2109.6711 2114.8731 
2016 2074 2123.4564 2127.0978 2131.5195 2118.2544 2099.7873 2087.0424 2107.8504 2122.6761 2133.8604 2108.3706 2124.7569 2112.2721 2110.7115 2120.3352 
2017 2074 2122.9362 2127.0978 2134.3806 2117.4741 2107.5903 2090.6838 2112.7923 2121.3756 2135.421 2101.0878 2123.9766 2112.7923 2111.2317 2122.6761 
2018 2075 2118.7746 2119.0347 2129.4387 2110.9716 2105.7696 2086.7823 2107.5903 2112.7923 2125.017 2093.5449 2123.1963 2109.1509 2105.7696 2113.8327 
2018 2077 2116.1736 2117.214 2128.3983 2108.8908 2098.2267 2086.2621 2102.1282 2105.5095 2117.9943 2100.0474 2123.9766 2106.2898 2098.7469 2107.3302 
2017 2082 2115.9135 2124.4968 2135.9412 2112.2721 2094.8454 2089.9035 2104.209 2109.6711 2126.5776 2107.0701 2124.2367 2109.9312 2098.2267 2110.4514 
2016 2084 2117.7342 2131.7796 2140.623 2117.7342 2099.5272 2094.3252 2109.6711 2116.1736 2134.3806 2101.8681 2123.1963 2116.6938 2101.0878 2112.012 
2016 2083 2115.9135 2130.9993 2136.9816 2117.7342 2112.2721 2095.6257 2107.8504 2112.2721 2129.1786 2094.0651 2122.1559 2114.8731 2099.5272 2108.3706 
2015 2081 2108.3706 2123.4564 2129.9589 2109.6711 2114.613 2089.9035 2103.4287 2108.8908 2122.416 2094.8454 2122.1559 2106.2898 2094.3252 2103.1686 
2015 2078 2111.2317 2124.7569 2130.219 2111.7519 2108.1105 2087.5626 2105.7696 2112.5322 2127.3579 2104.4691 2122.9362 2108.8908 2098.4868 2106.5499 
2013 2068 2114.0928 2126.0574 2131.2594 2115.6534 2104.7292 2088.8631 2109.6711 2113.5726 2133.0801 2103.6888 2122.6761 2112.5322 2105.5095 2107.8504 
2010 2064 2105.2494 2114.613 2122.9362 2105.5095 2103.9489 2082.6207 2107.0701 2110.9716 2130.7392 2094.5853 2121.3756 2102.9085 2101.0878 2098.7469 
2010 2062 2103.4287 2110.1913 2117.214 2101.608 2102.9085 2075.598 2100.0474 2108.8908 2126.5776 2097.9666 2121.3756 2097.1863 2096.6661 2095.1055 
2009 2062 2116.9539 2123.4564 2128.6584 2118.5145 2104.4691 2084.1813 2103.6888 2112.5322 2133.6003 2109.6711 2122.1559 2108.8908 2109.1509 2107.5903 
2007 2061 2125.5372 2131.2594 2140.623 2129.1786 2109.411 2092.5045 2113.0524 2119.2948 2145.3048 2112.012 2122.1559 2118.5145 2122.1559 2119.0347 
2007 2060 2120.5953 2122.6761 2134.1205 2119.815 2108.8908 2087.0424 2113.3125 2116.9539 2142.1836 2107.0701 2121.8958 2114.0928 2118.2544 2114.3529 
2003 2056 2118.2544 2115.9135 2127.3579 2113.8327 2100.8277 2086.5222 2114.8731 2110.7115 2135.6811 2104.7292 2121.8958 2109.1509 2111.7519 2112.2721 
1998 2056 2118.7746 2116.4337 2132.0397 2115.9135 2095.8858 2092.5045 2118.7746 2112.012 2138.5422 2102.6484 2121.3756 2109.411 2112.5322 2115.3933 
1992 2050 2119.0347 2116.6938 2135.421 2115.6534 2099.7873 2090.9439 2111.2317 2112.5322 2142.4437 2103.4287 2121.1155 2109.9312 2114.613 2115.1332 
1990 2047 2122.1559 2116.1736 2135.421 2114.3529 2100.0474 2088.8631 2104.9893 2111.2317 2146.0851 2111.2317 2121.8958 2111.7519 2116.4337 2119.0347 
1984 2039 2123.1963 2115.6534 2139.0624 2112.7923 2097.7065 2091.9843 2113.8327 2114.3529 2152.5876 2115.1332 2121.8958 2113.0524 2115.6534 2123.4564 
1983 2035 2117.9943 2114.3529 2141.4033 2111.4918 2104.209 2094.3252 2117.9943 2115.3933 2156.7492 2115.6534 2120.5953 2112.2721 2108.8908 2120.5953 
1980 2033 2115.6534 2112.7923 2139.5826 2110.4514 2104.7292 2094.3252 2112.5322 2110.9716 2152.8477 2109.411 2121.6357 2112.5322 2104.9893 2115.1332 
1978 2032 2117.9943 2116.9539 2142.7038 2111.7519 2099.007 2096.6661 2113.5726 2108.6307 2147.9058 2102.3883 2121.3756 2116.9539 2108.6307 2117.214 
1978 2033 2114.3529 2122.416 2145.5649 2112.7923 2101.3479 2099.007 2118.2544 2111.4918 2148.1659 2112.7923 2117.7342 2119.815 2108.6307 2120.3352 
1975 2035 2108.1105 2117.7342 2144.5245 2109.6711 2106.5499 2098.7469 2117.214 2114.0928 2150.2467 2120.3352 2115.6534 2117.7342 2105.7696 2117.214 
1974 2036 2112.2721 2117.9943 2146.6053 2111.4918 2109.6711 2100.5676 2118.7746 2118.5145 2154.1482 2114.3529 2115.6534 2121.1155 2112.7923 2117.7342 
1970 2036 2120.0751 2132.5599 2152.8477 2121.6357 2115.3933 2107.0701 2125.7973 2122.6761 2161.6911 2121.3756 2115.3933 2130.9993 2122.6761 2126.0574 
1967 2036 2115.3933 2134.1205 2148.6861 2120.8554 2115.3933 2104.4691 2122.6761 2116.6938 2157.5295 2126.5776 2115.1332 2127.0978 2116.4337 2123.1963 
1963 2035 2107.0701 2122.6761 2140.3629 2112.7923 2110.1913 2098.7469 2114.613 2110.7115 2146.8654 2113.5726 2115.1332 2116.1736 2108.6307 2112.2721 
1963 2035 2109.9312 2122.416 2143.7442 2117.214 2110.1913 2101.608 2119.815 2117.4741 2155.4487 2109.411 2114.3529 2119.5549 2115.9135 2115.3933 
1961 2038 2114.0928 2128.1382 2147.6457 2123.7165 2110.7115 2102.6484 2128.6584 2122.6761 2168.9739 2114.613 2114.3529 2125.2771 2122.416 2122.6761 
1959 2037 2111.4918 2123.7165 2142.9639 2120.5953 2107.5903 2096.9262 2124.4968 2115.6534 2164.2921 2109.1509 2115.3933 2118.5145 2117.9943 2119.5549 
1960 2034 2108.8908 2116.4337 2140.3629 2116.9539 2107.5903 2096.406 2116.1736 2109.9312 2156.229 2108.1105 2115.1332 2113.0524 2112.5322 2116.6938 
1957 2032 2110.9716 2117.9943 2143.7442 2118.2544 2102.9085 2099.2671 2117.4741 2110.1913 2158.0497 2115.6534 2115.3933 2115.9135 2113.3125 2121.1155 
1955 2028 2113.0524 2120.5953 2144.7846 2118.2544 2095.6257 2098.4868 2121.3756 2108.3706 2158.5699 2114.613 2117.4741 2116.4337 2114.613 2124.2367 
1951 2022 2112.5322 2117.7342 2147.1255 2116.9539 2099.7873 2099.007 2120.0751 2106.0297 2156.229 2108.8908 2121.6357 2112.012 2109.9312 2122.9362 
1948 2018 2113.0524 2114.8731 2153.8881 2117.7342 2103.9489 2097.7065 2113.8327 2102.6484 2152.5876 2107.3302 2123.7165 2111.2317 2102.9085 2122.1559 
1945 2017 2112.7923 2113.0524 2160.6507 2118.5145 2097.7065 2091.7242 2107.8504 2093.5449 2141.6634 2099.7873 2121.8958 2115.3933 2099.2671 2120.5953 
1945 2019 2113.0524 2112.2721 2170.5345 2123.1963 2091.9843 2091.204 2108.3706 2088.0828 2132.0397 2090.6838 2124.2367 2121.8958 2098.7469 2119.5549 
1943 2020 2116.9539 2119.0347 2179.3779 2135.1609 2093.805 2098.7469 2113.5726 2094.5853 2135.9412 2098.7469 2128.9185 2132.82 2101.8681 2124.2367 
1942 2021 2122.6761 2131.7796 2186.9208 2151.2871 2098.2267 2101.0878 2116.1736 2101.3479 2143.7442 2113.3125 2127.3579 2149.9866 2109.6711 2132.2998 
1942 2020 2120.0751 2129.9589 2178.8577 2156.7492 2097.9666 2093.805 2110.9716 2099.2671 2138.2821 2108.8908 2122.416 2157.7896 2111.4918 2130.219 
1940 2020 2115.6534 2120.5953 2137.7619 2153.628 2092.5045 2091.7242 2112.5322 2098.2267 2132.2998 2101.608 2122.1559 2154.6684 2108.6307 2125.2771 
1934 2017 2123.4564 2136.9816 2064.9339 2173.3956 2104.209 2093.805 2107.8504 2101.0878 2139.8427 2117.7342 2126.5776 2171.5749 2122.6761 2135.1609 
1934 2015 2120.0751 2139.0624 2060.5122 2176.5168 2116.1736 2092.2444 2101.8681 2103.9489 2137.7619 2113.8327 2123.7165 2174.6961 2130.219 2138.022 
1929 2015 2117.4741 2138.8023 2054.5299 2173.3956 2115.6534 2096.9262 2108.6307 2107.5903 2144.0043 2117.9943 2123.1963 2174.6961 2137.5018 2140.8831 
1927 2012 2116.1736 2140.1028 2053.2294 2173.6557 2113.3125 2100.0474 2115.3933 2110.4514 2154.4083 2130.7392 2123.4564 2177.8173 2142.7038 2141.9235 
1921 2014 2111.4918 2135.9412 2059.7319 2172.6153 2116.9539 2101.608 2113.5726 2108.3706 2155.1886 2131.2594 2121.6357 2178.5976 2144.0043 2141.6634 
1920 2016 2109.411 2137.7619 2069.6157 2173.6557 2117.7342 2104.4691 2114.0928 2103.6888 2154.9285 2122.1559 2120.8554 2180.4183 2145.3048 2145.0447 
1918 2019 2112.012 2144.5245 2076.6384 2175.9966 2114.0928 2105.5095 2116.6938 2102.9085 2158.83 2127.3579 2121.8958 2186.1405 2146.0851 2148.9462 
1917 2020 2109.411 2137.7619 2076.3783 2167.1532 2111.7519 2104.209 2115.1332 2103.4287 2158.0497 2134.9008 2122.1559 2183.2794 2140.623 2146.8654 
1913 2022 2103.1686 2131.7796 2075.8581 2160.9108 2112.2721 2102.6484 2116.1736 2104.4691 2158.83 2130.7392 2124.7569 2173.6557 2133.3402 2143.7442 
1911 2022 2103.1686 2137.2417 2076.1182 2164.5522 2115.3933 2101.8681 2120.0751 2105.5095 2160.1305 2127.0978 2128.3983 2172.3552 2133.0801 2143.224 
1906 2020 2107.0701 2136.9816 2073.2571 2157.0093 2119.5549 2100.8277 2117.4741 2100.0474 2151.8073 2126.8377 2129.9589 2174.6961 2136.2013 2145.0447 
1903 2017 2102.3883 2126.0574 2063.8935 2132.5599 2112.7923 2094.3252 2104.9893 2088.603 2141.4033 2123.1963 2130.219 2161.431 2123.7165 2138.022 
1897 2010 2094.5853 2125.5372 2057.1309 2122.416 2105.2494 2087.3025 2098.7469 2090.4237 2141.4033 2122.6761 2129.9589 2147.1255 2109.411 2127.0978 
1895 2007 2095.3656 2132.2998 2057.391 2129.1786 2108.6307 2087.5626 2104.209 2101.8681 2142.9639 2128.1382 2132.2998 2147.9058 2116.4337 2125.7973 
1892 2004 2094.3252 2130.4791 2055.5703 2122.416 2115.9135 2086.7823 2107.5903 2103.1686 2141.4033 2126.0574 2130.7392 2145.5649 2123.4564 2128.6584 
1887 1999 2085.7419 2125.2771 2049.0678 2108.8908 2119.2948 2077.6788 2102.3883 2098.7469 2141.6634 2121.3756 2126.8377 2135.1609 2114.8731 2122.6761 
1886 1995 2079.7596 2116.6938 2043.0855 2104.4691 2113.0524 2070.396 2097.7065 2098.7469 2139.3225 2118.5145 2127.0978 2130.219 2110.9716 2113.8327 
1886 1995 2083.1409 2112.5322 2045.1663 2103.1686 2109.6711 2071.6965 2101.608 2103.4287 2140.1028 2114.613 2126.8377 2130.219 2117.7342 2115.6534 
1887 1995 2086.5222 2126.0574 2054.2698 2104.9893 2121.6357 2073.7773 2108.1105 2106.5499 2145.825 2115.3933 2123.1963 2131.7796 2119.815 2119.815 
1888 1992 2078.9793 2132.5599 2054.5299 2106.0297 2128.1382 2069.8758 2106.2898 2104.9893 2140.1028 2115.6534 2122.6761 2127.618 2113.0524 2113.8327 
1887 1991 2073.2571 2124.2367 2050.1082 2101.8681 2121.8958 2068.5753 2107.5903 2106.0297 2136.2013 2116.4337 2123.9766 2120.3352 2111.7519 2109.1509 
1888 1988 2077.6788 2124.2367 2056.8708 2099.007 2117.9943 2070.1359 2116.6938 2109.411 2145.3048 2117.7342 2122.6761 2120.8554 2115.6534 2114.8731 
1888 1986 2074.8177 2120.5953 2058.4314 2094.8454 2116.6938 2065.7142 2114.3529 2106.0297 2142.1836 2108.3706 2121.6357 2119.0347 2110.1913 2112.7923 
1886 1984 2071.4364 2111.4918 2059.2117 2093.5449 2117.9943 2065.9743 2112.5322 2108.8908 2141.1432 2110.1913 2122.6761 2117.4741 2110.7115 2112.7923 
1884 1985 2081.5803 2124.2367 2079.4995 2104.4691 2126.8377 2076.1182 2128.3983 2123.1963 2167.1532 2135.421 2123.1963 2132.2998 2129.1786 2131.5195 
1882 1986 2082.3606 2135.421 2088.603 2107.5903 2128.1382 2074.8177 2133.0801 2120.0751 2177.8173 2143.224 2123.1963 2139.8427 2134.3806 2136.2013 
1882 1986 2069.6157 2122.1559 2074.0374 2095.1055 2122.6761 2065.194 2118.5145 2104.7292 2157.7896 2124.2367 2121.8958 2125.017 2117.214 2117.7342 
1881 1987 2067.0147 2122.1559 2075.0778 2094.0651 2124.7569 2068.8354 2116.9539 2107.8504 2152.3275 2122.416 2122.416 2121.1155 2111.4918 2114.8731 
1879 1990 2071.1763 2138.022 2090.9439 2103.4287 2129.4387 2074.8177 2124.4968 2117.214 2161.9512 2129.4387 2122.9362 2132.82 2119.5549 2126.5776 
1878 1988 2064.9339 2136.7215 2089.3833 2100.0474 2129.9589 2067.5349 2117.4741 2112.5322 2157.0093 2123.7165 2121.8958 2129.6988 2117.7342 2121.1155 
1880 1982 2062.8531 2132.5599 2087.3025 2093.805 2135.1609 2065.4541 2114.8731 2109.9312 2151.5472 2126.5776 2122.9362 2125.5372 2114.3529 2115.6534 
1881 1980 2067.5349 2139.8427 2095.6257 2095.3656 2142.4437 2070.6561 2122.1559 2116.6938 2154.9285 2127.3579 2120.8554 2131.5195 2116.1736 2121.8958 
1882 1973 2065.9743 2142.4437 2094.5853 2095.6257 2139.8427 2065.9743 2121.1155 2119.2948 2152.8477 2117.4741 2117.214 2130.9993 2114.3529 2119.5549 
1883 1968 2064.6738 2143.224 2095.6257 2099.007 2138.022 2062.3329 2122.9362 2121.1155 2153.8881 2124.4968 2117.7342 2130.4791 2116.9539 2119.0347 
1883 1955 2068.5753 2145.3048 2107.3302 2103.4287 2144.0043 2066.2344 2131.5195 2123.7165 2155.7088 2130.219 2118.7746 2136.4614 2125.5372 2128.1382 
1884 1948 2068.5753 2145.825 2111.2317 2105.7696 2145.3048 2065.7142 2131.5195 2124.4968 2151.5472 2121.1155 2116.1736 2138.2821 2129.9589 2129.6988 
1886 1934 2064.9339 2144.0043 2103.1686 2106.0297 2139.8427 2059.4718 2126.0574 2123.4564 2147.3856 2119.2948 2115.1332 2131.2594 2125.2771 2121.6357 
1886 1930 2067.2748 2145.0447 2104.9893 2108.6307 2141.4033 2058.9516 2128.6584 2124.4968 2149.2063 2124.2367 2118.5145 2130.4791 2125.2771 2122.416 
1886 1929 2073.5172 2148.426 2113.8327 2114.613 2144.0043 2063.3733 2134.1205 2129.6988 2155.1886 2124.7569 2120.0751 2136.2013 2134.1205 2128.3983 
1889 1930 2073.2571 2150.2467 2116.9539 2120.8554 2144.0043 2068.0551 2135.1609 2132.5599 2162.7315 2127.8781 2119.815 2136.9816 2141.4033 2128.1382 
1891 1931 2071.4364 2148.1659 2118.5145 2121.6357 2148.6861 2069.6157 2135.6811 2128.3983 2165.0724 2132.82 2119.5549 2133.6003 2139.3225 2127.8781 
1892 1938 2073.2571 2143.4841 2121.6357 2119.2948 2153.628 2069.0955 2136.9816 2124.4968 2158.83 2131.2594 2119.2948 2133.0801 2136.9816 2131.5195 
1892 1942 2072.7369 2137.5018 2117.214 2113.3125 2148.1659 2065.4541 2132.2998 2122.416 2154.9285 2122.6761 2121.3756 2130.4791 2136.9816 2127.618 
1892 1947 2065.9743 2126.5776 2102.1282 2097.4464 2137.2417 2053.2294 2119.815 2114.0928 2151.2871 2111.2317 2123.4564 2114.0928 2120.8554 2109.411 
1891 1946 2062.8531 2124.2367 2099.2671 2090.4237 2139.5826 2047.5072 2115.6534 2109.9312 2141.1432 2111.4918 2123.7165 2106.0297 2107.3302 2100.0474 
1889 1938 2063.3733 2129.6988 2106.5499 2095.1055 2141.6634 2053.4895 2117.7342 2113.8327 2130.4791 2110.9716 2121.3756 2110.7115 2112.5322 2103.4287 
1889 1933 2068.8354 2138.8023 2113.5726 2102.1282 2140.3629 2061.8127 2123.4564 2123.7165 2140.3629 2113.8327 2121.8958 2120.8554 2126.0574 2110.9716 
1886 1931 2072.4768 2143.4841 2115.3933 2102.9085 2145.3048 2059.2117 2127.618 2125.7973 2153.8881 2123.4564 2122.6761 2125.017 2125.7973 2112.2721 
1884 1935 2063.1132 2131.2594 2103.6888 2091.9843 2146.0851 2045.4264 2115.6534 2111.4918 2136.9816 2112.5322 2122.1559 2110.9716 2108.8908 2098.2267 
1882 1948 2066.4945 2130.219 2102.3883 2094.8454 2144.5245 2044.6461 2111.2317 2110.7115 2128.9185 2105.2494 2121.3756 2108.6307 2112.7923 2099.007 
1882 1954 2085.4818 2145.5649 2119.815 2112.012 2148.9462 2054.79 2123.1963 2127.0978 2147.9058 2120.8554 2121.8958 2129.1786 2134.9008 2117.7342 
1883 1958 2086.5222 2143.4841 2118.5145 2109.411 2149.7265 2049.3279 2117.4741 2125.5372 2142.1836 2113.3125 2122.6761 2129.6988 2130.9993 2113.8327 
1884 1958 2079.7596 2132.82 2104.209 2102.3883 2146.6053 2041.2648 2107.0701 2117.214 2125.5372 2094.0651 2122.1559 2112.2721 2117.4741 2099.5272 
1882 1957 2093.0247 2141.6634 2114.3529 2115.6534 2149.9866 2050.8885 2122.416 2128.9185 2140.1028 2106.5499 2122.1559 2118.7746 2129.6988 2109.6711 
1881 1957 2094.3252 2137.5018 2116.1736 2109.9312 2141.4033 2046.987 2122.9362 2127.3579 2142.9639 2105.5095 2122.1559 2118.7746 2129.1786 2108.6307 
1880 1957 2081.0601 2112.2721 2094.5853 2084.9616 2123.1963 2029.8204 2101.608 2109.6711 2121.1155 2082.6207 2121.8958 2095.1055 2106.0297 2088.8631 
1876 1959 2084.9616 2107.3302 2093.5449 2084.1813 2118.5145 2030.6007 2102.3883 2109.6711 2122.6761 2076.8985 2121.8958 2090.4237 2103.1686 2090.9439 
1873 1958 2090.9439 2116.9539 2104.9893 2092.5045 2125.5372 2035.5426 2113.0524 2113.0524 2133.3402 2072.4768 2121.6357 2097.7065 2107.8504 2100.3075 
1872 1962 2084.1813 2111.4918 2099.2671 2086.5222 2125.2771 2029.5603 2112.012 2106.0297 2123.4564 2068.8354 2122.1559 2090.1636 2099.7873 2091.4641 
1871 1962 2082.8808 2097.9666 2093.0247 2078.4591 2108.1105 2025.9189 2107.5903 2101.608 2115.6534 2077.9389 2122.6761 2081.8404 2090.6838 2083.9212 
1867 1962 2085.2217 2097.9666 2098.2267 2076.6384 2099.2671 2028.2598 2105.5095 2102.9085 2121.6357 2082.1005 2122.6761 2084.1813 2087.5626 2087.3025 
1864 1963 2077.4187 2102.1282 2097.9666 2075.3379 2108.6307 2024.8785 2099.007 2102.1282 2121.3756 2075.3379 2122.6761 2082.3606 2084.7015 2083.9212 
1859 1963 2072.7369 2099.7873 2095.6257 2075.3379 2113.8327 2022.0174 2094.8454 2101.8681 2116.1736 2073.7773 2122.9362 2080.5399 2085.2217 2081.8404 
1857 1962 2080.8 2104.9893 2105.2494 2079.4995 2107.0701 2027.7396 2100.5676 2111.2317 2125.017 2081.5803 2122.9362 2092.5045 2093.5449 2096.1459 
1856 1961 2086.7823 2115.1332 2115.1332 2086.002 2105.2494 2031.9012 2106.0297 2116.9539 2133.3402 2089.6434 2123.4564 2104.7292 2099.2671 2106.2898 
1855 1960 2078.4591 2106.81 2109.1509 2080.8 2106.2898 2025.3987 2097.4464 2103.4287 2120.3352 2081.8404 2122.416 2096.9262 2090.1636 2095.1055 
1854 1959 2070.1359 2096.406 2102.9085 2071.4364 2107.3302 2019.6765 2088.0828 2091.9843 2106.2898 2070.9162 2120.8554 2086.7823 2080.0197 2086.5222 
1854 1958 2075.0778 2106.5499 2107.0701 2075.598 2110.9716 2024.3583 2094.3252 2101.608 2108.6307 2075.8581 2121.1155 2096.9262 2084.7015 2092.2444 
1854 1957 2078.199 2106.81 2101.3479 2076.1182 2105.2494 2023.578 2098.4868 2108.1105 2108.6307 2066.2344 2118.5145 2098.4868 2085.2217 2089.9035 
1853 1955 2071.9566 2093.0247 2089.6434 2067.2748 2100.8277 2017.5957 2094.0651 2102.9085 2106.2898 2054.2698 2114.8731 2084.4414 2075.8581 2082.1005 
1854 1955 2071.4364 2090.9439 2090.9439 2066.4945 2102.1282 2016.5553 2096.1459 2104.9893 2110.7115 2072.2167 2114.8731 2083.1409 2077.1586 2086.5222 
1855 1952 2074.2975 2091.9843 2094.0651 2070.6561 2094.8454 2018.1159 2099.7873 2109.1509 2113.8327 2084.1813 2115.6534 2087.3025 2082.3606 2091.7242 
1857 1949 2074.2975 2082.6207 2088.3429 2063.8935 2084.9616 2015.775 2095.8858 2104.209 2107.0701 2063.3733 2116.9539 2077.1586 2075.3379 2086.7823 
1861 1948 2078.4591 2083.9212 2096.406 2066.7546 2091.7242 2020.1967 2099.7873 2106.5499 2110.4514 2060.2521 2121.1155 2078.9793 2076.6384 2092.7646 
1862 1949 2079.4995 2080.8 2099.7873 2069.0955 2088.0828 2019.9366 2099.7873 2104.4691 2112.2721 2068.3152 2122.9362 2080.2798 2073.2571 2094.3252 
1866 1963 2086.002 2067.2748 2087.8227 2054.79 2070.6561 2012.3937 2089.9035 2093.0247 2102.3883 2057.1309 2121.8958 2064.9339 2057.9112 2082.1005 
1868 1970 2113.0524 2078.4591 2097.1863 2059.4718 2080.5399 2020.7169 2097.1863 2098.7469 2107.8504 2059.2117 2121.8958 2072.7369 2066.4945 2092.5045 
1872 1977 2125.2771 2096.1459 2115.3933 2075.0778 2096.406 2033.4618 2113.0524 2113.5726 2119.2948 2079.7596 2121.8958 2092.7646 2081.3202 2109.6711 
1879 1984 2110.7115 2083.1409 2104.209 2058.6915 2084.1813 2026.9593 2104.4691 2107.0701 2108.8908 2073.2571 2122.416 2081.3202 2065.4541 2097.9666 
1880 1985 2105.5095 2080.2798 2098.7469 2048.0274 2082.3606 2026.4391 2093.805 2099.5272 2104.7292 2061.5526 2120.0751 2075.598 2057.9112 2092.5045 
1885 1985 2107.5903 2101.8681 2115.3933 2065.7142 2097.9666 2037.6234 2095.6257 2103.6888 2115.9135 2077.9389 2117.4741 2094.5853 2072.7369 2105.5095 
1885 1988 2097.7065 2087.8227 2102.6484 2050.8885 2082.6207 2022.7977 2078.9793 2089.9035 2090.4237 2065.7142 2121.6357 2080.2798 2054.5299 2089.6434 
1886 1993 2099.5272 2069.8758 2088.8631 2031.6411 2071.6965 2012.1336 2071.4364 2081.8404 2066.2344 2043.6057 2123.7165 2062.8531 2039.4441 2076.3783 
1889 1991 2110.1913 2108.8908 2123.1963 2071.1763 2105.7696 2042.3052 2099.2671 2108.8908 2102.1282 2080.0197 2116.9539 2100.0474 2077.4187 2107.3302 
1887 1979 2100.5676 2141.1432 2151.027 2106.2898 2122.1559 2062.8531 2112.2721 2122.1559 2130.9993 2109.6711 2112.2721 2132.2998 2104.7292 2126.8377 
1886 1977 2088.603 2129.1786 2144.2644 2097.9666 2117.7342 2052.4491 2100.5676 2108.1105 2117.4741 2091.7242 2114.3529 2125.5372 2094.0651 2117.7342 
1886 1978 2090.1636 2125.7973 2140.3629 2095.1055 2125.5372 2048.5476 2102.1282 2105.5095 2112.7923 2092.5045 2114.3529 2126.0574 2094.0651 2117.4741 
1884 1980 2084.9616 2130.7392 2138.8023 2099.007 2109.9312 2049.8481 2103.1686 2107.8504 2115.6534 2101.0878 2111.7519 2127.8781 2099.007 2116.6938 
1884 1987 2080.5399 2123.9766 2135.6811 2096.1459 2097.4464 2047.2471 2098.4868 2104.7292 2112.2721 2088.603 2112.2721 2121.3756 2093.805 2112.5322 
1884 1988 2087.8227 2126.3175 2145.3048 2101.0878 2127.8781 2053.4895 2107.3302 2110.7115 2121.3756 2091.7242 2114.3529 2128.3983 2099.5272 2122.6761 
1881 1988 2090.9439 2134.9008 2155.9689 2109.411 2140.3629 2062.3329 2115.3933 2117.214 2130.219 2106.5499 2114.0928 2138.022 2110.7115 2134.6407 
1876 1990 2086.7823 2134.1205 2159.6103 2109.1509 2121.3756 2064.4137 2113.8327 2112.5322 2125.2771 2108.6307 2112.7923 2136.9816 2111.2317 2137.2417 
1874 1992 2080.0197 2131.2594 2162.9916 2104.7292 2124.4968 2064.4137 2110.9716 2107.5903 2121.6357 2108.1105 2113.5726 2136.7215 2107.0701 2138.2821 
1871 1995 2077.1586 2134.6407 2167.6734 2102.3883 2130.4791 2064.9339 2113.3125 2109.411 2123.9766 2111.2317 2114.613 2140.623 2105.7696 2140.8831 
1869 1995 2075.8581 2138.8023 2170.5345 2101.608 2115.3933 2067.0147 2121.8958 2108.8908 2121.8958 2106.81 2114.0928 2140.623 2103.9489 2141.1432 
1866 1995 2070.1359 2142.1836 2174.436 2103.1686 2116.6938 2070.396 2121.8958 2104.7292 2119.0347 2100.8277 2114.0928 2142.4437 2102.1282 2139.8427 
1864 1993 2062.0728 2148.1659 2181.1986 2106.2898 2136.2013 2072.4768 2109.411 2103.1686 2119.0347 2110.7115 2114.3529 2149.7265 2104.4691 2139.5826 
1862 1989 2059.4718 2149.4664 2183.0193 2104.209 2141.1432 2072.4768 2106.2898 2107.3302 2125.017 2125.7973 2113.8327 2153.3679 2106.81 2139.5826 
1861 1989 2057.6511 2143.7442 2177.8173 2095.6257 2131.2594 2070.1359 2111.2317 2112.012 2131.7796 2124.7569 2113.0524 2149.9866 2104.209 2136.4614 
1857 1988 2059.4718 2149.9866 2182.4991 2100.5676 2130.7392 2071.1763 2113.0524 2115.3933 2124.2367 2117.7342 2113.5726 2154.1482 2108.1105 2136.4614 
1857 1989 2059.7319 2155.9689 2186.6607 2106.0297 2133.3402 2069.6157 2109.9312 2113.3125 2109.1509 2113.0524 2114.0928 2157.2694 2110.9716 2137.7619 
1858 1989 2052.189 2142.7038 2173.6557 2090.9439 2123.9766 2058.4314 2099.7873 2106.2898 2103.6888 2107.0701 2113.5726 2144.5245 2100.5676 2130.7392 
1857 1994 2072.997 2145.825 2177.8173 2095.3656 2132.2998 2058.6915 2102.6484 2113.3125 2112.5322 2118.2544 2114.0928 2148.9462 2107.5903 2135.1609 
1856 1998 2111.4918 2162.7315 2195.244 2118.2544 2151.2871 2067.795 2116.4337 2125.5372 2119.0347 2130.9993 2115.3933 2164.2921 2128.1382 2143.224 
1854 2005 2122.416 2158.3098 2195.244 2118.7746 2148.1659 2065.9743 2118.2544 2124.4968 2116.9539 2121.3756 2115.6534 2159.3502 2127.618 2136.4614 
1852 2008 2112.2721 2143.224 2184.5799 2105.5095 2136.2013 2056.3506 2109.1509 2115.9135 2110.7115 2106.0297 2114.8731 2142.7038 2111.4918 2124.7569 
1850 2014 2109.9312 2137.7619 2178.3375 2102.6484 2130.9993 2052.189 2107.0701 2112.5322 2107.3302 2100.5676 2114.613 2136.2013 2106.2898 2119.815 
1849 2015 2116.1736 2135.9412 2179.8981 2102.6484 2124.7569 2055.8304 2116.9539 2120.3352 2114.8731 2104.209 2115.3933 2141.1432 2114.8731 2124.4968 
1848 2015 2122.9362 2137.2417 2189.5218 2103.1686 2125.017 2061.5526 2126.0574 2126.3175 2121.8958 2112.7923 2116.6938 2149.4664 2123.4564 2135.9412 
1846 2014 2124.7569 2140.3629 2186.4006 2105.7696 2131.5195 2061.8127 2119.0347 2121.3756 2118.5145 2116.9539 2116.4337 2152.3275 2125.017 2141.1432 
1843 2006 2120.0751 2139.0624 2166.633 2105.2494 2127.8781 2057.9112 2106.5499 2114.8731 2112.2721 2111.7519 2116.9539 2146.8654 2121.1155 2135.421 
1843 2006 2120.0751 2139.0624 2166.633 2105.2494 2127.8781 2057.9112 2106.5499 2114.8731 2112.2721 2111.7519 2116.9539 2146.8654 2121.1155 2135.421 
1842 2003 2125.2771 2148.1659 2168.7138 2114.613 2133.0801 2065.194 2112.7923 2119.5549 2116.1736 2117.7342 2121.1155 2153.1078 2125.017 2139.8427 
1841 1995 2134.1205 2160.1305 2185.6203 2126.8377 2145.825 2073.7773 2120.0751 2127.0978 2125.5372 2132.5599 2123.4564 2166.1128 2132.5599 2150.7669 
1841 1994 2129.4387 2155.1886 2183.2794 2122.9362 2138.5422 2068.8354 2112.7923 2124.4968 2125.017 2129.1786 2121.6357 2162.4714 2129.9589 2146.6053 
1844 1993 2121.3756 2143.7442 2171.835 2109.411 2127.0978 2061.0324 2106.2898 2116.9539 2113.5726 2112.7923 2120.5953 2148.9462 2120.0751 2134.9008 
1842 1990 2125.2771 2149.4664 2178.5976 2110.1913 2136.2013 2065.7142 2110.4514 2118.7746 2111.2317 2115.6534 2121.8958 2154.1482 2122.1559 2135.9412 
1842 1988 2133.6003 2160.3906 2187.7011 2120.8554 2144.2644 2071.6965 2117.7342 2127.3579 2115.6534 2126.3175 2122.1559 2166.633 2134.3806 2142.9639 
1837 1992 2133.6003 2157.5295 2181.9789 2122.416 2137.2417 2068.3152 2121.6357 2131.7796 2116.1736 2121.1155 2121.8958 2161.1709 2138.2821 2140.8831 
1838 1995 2128.9185 2150.5068 2179.638 2119.815 2130.7392 2063.6334 2119.5549 2130.9993 2115.9135 2114.8731 2121.6357 2149.4664 2132.82 2134.1205 
1834 2005 2123.7165 2142.9639 2179.638 2120.0751 2129.9589 2056.6107 2114.0928 2128.3983 2110.7115 2111.7519 2121.3756 2142.9639 2126.3175 2124.7569 
1834 2011 2122.6761 2138.5422 2181.9789 2128.9185 2132.5599 2051.9289 2113.5726 2127.618 2107.5903 2108.6307 2122.416 2144.5245 2129.4387 2123.4564 
1833 2022 2129.1786 2144.0043 2199.1455 2149.2063 2133.0801 2054.79 2120.8554 2130.7392 2112.012 2104.209 2122.1559 2155.1886 2135.6811 2132.0397 
1832 2026 2136.7215 2148.426 2213.1909 2172.8754 2127.618 2057.1309 2125.017 2130.219 2109.9312 2098.2267 2121.1155 2163.5118 2136.9816 2135.9412 
1828 2032 2139.8427 2141.6634 2201.7465 2183.2794 2122.6761 2055.8304 2122.1559 2130.4791 2108.6307 2098.2267 2121.1155 2165.8527 2138.8023 2136.7215 
1827 2032 2142.7038 2138.2821 2182.239 2187.441 2121.6357 2057.9112 2124.2367 2135.1609 2120.8554 2104.9893 2121.8958 2173.3956 2142.1836 2147.1255 
1827 2030 2148.9462 2155.1886 2175.4764 2208.249 2121.8958 2063.1132 2130.219 2133.8604 2123.7165 2109.411 2122.416 2186.6607 2144.7846 2158.83 
1827 2027 2153.3679 2157.0093 2168.9739 2221.7742 2119.815 2066.7546 2129.9589 2130.7392 2116.4337 2115.1332 2122.9362 2196.5445 2149.2063 2164.5522 
1827 2025 2147.6457 2131.2594 2150.7669 2204.8677 2110.1913 2065.4541 2123.4564 2129.1786 2114.613 2111.2317 2123.1963 2193.4233 2143.7442 2162.2113 
1827 2017 2147.6457 2159.0901 2117.7342 2224.1151 2109.6711 2065.4541 2127.8781 2125.017 2103.9489 2096.6661 2123.7165 2194.4637 2139.5826 2161.9512 
1827 2016 2160.3906 2166.633 2117.9943 2233.9989 2121.3756 2076.3783 2134.1205 2130.9993 2114.0928 2111.4918 2124.2367 2210.3298 2157.2694 2179.1178 
1828 2018 2155.4487 2140.8831 2100.3075 2201.7465 2121.3756 2073.5172 2128.3983 2125.017 2112.7923 2106.2898 2123.7165 2201.4864 2148.9462 2174.436 
1830 2020 2142.9639 2133.3402 2081.5803 2182.239 2116.1736 2064.4137 2120.3352 2116.1736 2097.4464 2101.3479 2122.9362 2181.1986 2129.6988 2155.9689 
1831 2022 2144.0043 2146.8654 2088.8631 2189.2617 2112.2721 2068.8354 2127.0978 2123.1963 2100.3075 2109.9312 2122.416 2177.5572 2128.3983 2153.628 
1833 2026 2148.6861 2148.426 2103.1686 2184.84 2110.9716 2074.8177 2131.7796 2128.9185 2112.7923 2110.1913 2121.8958 2176.7769 2135.9412 2156.4891 
1834 2027 2144.2644 2133.3402 2102.6484 2163.5118 2112.7923 2065.4541 2125.5372 2124.2367 2103.6888 2097.4464 2122.6761 2163.2517 2127.8781 2147.1255 
1835 2030 2142.1836 2128.3983 2105.5095 2153.628 2115.1332 2062.0728 2128.3983 2125.017 2092.7646 2097.7065 2121.1155 2155.4487 2121.1155 2142.4437 
1836 2031 2148.1659 2136.2013 2115.6534 2157.7896 2116.4337 2068.3152 2130.7392 2131.2594 2101.0878 2101.8681 2119.5549 2154.4083 2128.9185 2147.1255 
1837 2032 2148.9462 2131.2594 2115.9135 2153.1078 2117.4741 2063.8935 2122.416 2130.7392 2109.411 2091.9843 2119.0347 2143.7442 2130.7392 2147.6457 
1838 2031 2146.8654 2121.1155 2113.8327 2144.0043 2115.1332 2060.2521 2125.7973 2127.8781 2106.5499 2089.6434 2120.3352 2136.9816 2123.9766 2144.2644 
1837 2031 2149.7265 2116.6938 2117.7342 2138.2821 2109.6711 2066.4945 2134.6407 2127.618 2104.4691 2097.7065 2120.8554 2139.0624 2119.815 2143.7442 
1840 2026 2145.0447 2113.5726 2116.4337 2128.3983 2099.2671 2063.6334 2121.8958 2117.214 2105.7696 2094.3252 2117.4741 2127.618 2113.0524 2136.4614 
1840 2023 2145.0447 2125.017 2125.5372 2132.5599 2097.1863 2065.194 2119.815 2112.5322 2112.5322 2099.7873 2116.6938 2121.6357 2117.214 2138.022 
1842 2016 2156.4891 2141.6634 2152.0674 2148.1659 2111.4918 2080.8 2137.7619 2123.7165 2116.4337 2119.2948 2121.8958 2138.022 2133.8604 2155.7088 
1843 2012 2155.9689 2137.5018 2163.7719 2143.4841 2117.4741 2081.8404 2138.022 2123.7165 2108.3706 2117.9943 2122.416 2143.4841 2128.1382 2157.2694 
1845 2003 2145.3048 2128.1382 2160.1305 2124.7569 2107.5903 2073.2571 2127.3579 2113.5726 2104.209 2105.2494 2117.7342 2127.618 2110.1913 2141.4033 
1847 1999 2144.7846 2129.1786 2166.3729 2116.9539 2108.1105 2075.598 2126.8377 2112.012 2104.9893 2102.1282 2117.7342 2119.0347 2108.1105 2135.6811 
1848 1991 2145.825 2127.0978 2180.9385 2118.2544 2117.7342 2078.199 2126.0574 2114.613 2101.608 2106.81 2119.2948 2126.5776 2112.2721 2140.1028 
1849 1988 2140.1028 2128.3983 2189.2617 2118.5145 2109.1509 2074.0374 2120.8554 2114.8731 2103.1686 2111.4918 2118.5145 2131.2594 2111.4918 2138.022 
1852 1983 2139.0624 2132.2998 2194.7238 2115.6534 2097.7065 2073.7773 2123.1963 2117.4741 2110.1913 2113.0524 2119.815 2127.8781 2110.4514 2133.6003 
1853 1980 2136.9816 2120.0751 2198.6253 2103.1686 2106.5499 2071.4364 2121.3756 2116.1736 2106.81 2113.5726 2121.1155 2122.9362 2107.0701 2128.3983 
1854 1977 2131.7796 2115.6534 2202.7869 2101.0878 2118.2544 2066.2344 2115.9135 2115.1332 2104.209 2118.2544 2119.5549 2121.3756 2107.8504 2122.416 
1855 1977 2135.9412 2133.0801 2214.2313 2116.6938 2115.1332 2068.5753 2123.1963 2125.017 2115.9135 2119.5549 2119.0347 2124.2367 2117.4741 2125.2771 
1856 1976 2144.5245 2140.3629 2224.6353 2123.4564 2111.2317 2075.0778 2130.4791 2132.2998 2124.2367 2122.416 2121.1155 2129.4387 2125.017 2134.1205 
1857 1974 2146.3452 2130.219 2223.3348 2116.4337 2117.4741 2080.0197 2131.7796 2131.5195 2122.6761 2129.4387 2121.6357 2131.7796 2125.7973 2138.022 
1857 1974 2146.3452 2127.3579 2219.6934 2113.5726 2116.4337 2082.6207 2135.421 2131.7796 2123.1963 2125.2771 2121.3756 2129.9589 2123.4564 2136.9816 
1858 1973 2146.8654 2139.3225 2227.7565 2121.6357 2114.8731 2083.9212 2137.5018 2132.2998 2126.3175 2122.6761 2121.8958 2131.5195 2123.9766 2139.5826 
1858 1972 2141.1432 2138.022 2229.3171 2117.4741 2119.2948 2083.401 2130.7392 2126.8377 2119.815 2125.2771 2120.3352 2130.219 2120.0751 2139.0624 
1861 1970 2140.3629 2123.9766 2220.7338 2099.7873 2119.0347 2084.4414 2128.1382 2123.4564 2116.1736 2121.1155 2117.7342 2124.7569 2116.1736 2135.1609 
1863 1968 2147.3856 2129.9589 2228.5368 2105.2494 2115.3933 2090.1636 2133.3402 2125.7973 2123.7165 2123.7165 2118.2544 2128.1382 2120.0751 2140.1028 
1864 1961 2145.3048 2150.7669 2242.5822 2124.2367 2113.3125 2093.0247 2132.82 2123.4564 2119.815 2129.6988 2120.5953 2133.6003 2117.9943 2143.224 
1865 1958 2136.4614 2146.6053 2235.0393 2117.7342 2110.1913 2087.5626 2127.3579 2114.8731 2103.9489 2121.8958 2120.3352 2127.3579 2105.2494 2133.6003 
1867 1952 2136.9816 2134.1205 2226.1959 2105.7696 2114.8731 2084.1813 2127.618 2114.8731 2100.8277 2113.5726 2117.7342 2125.5372 2100.5676 2130.4791 
1866 1948 2141.4033 2142.7038 2232.9585 2112.012 2127.618 2086.2621 2129.4387 2120.8554 2106.2898 2119.5549 2117.4741 2134.1205 2107.3302 2137.5018 
1868 1946 2138.8023 2146.3452 2232.6984 2111.4918 2114.8731 2084.1813 2126.8377 2118.7746 2100.0474 2118.2544 2120.8554 2134.3806 2106.2898 2135.9412 
1870 1944 2135.1609 2137.7619 2226.456 2101.608 2100.0474 2080.5399 2122.416 2114.613 2091.204 2109.1509 2122.9362 2131.5195 2103.1686 2130.219 
1873 1943 2138.2821 2142.1836 2230.6176 2104.4691 2123.9766 2084.1813 2121.6357 2120.3352 2095.8858 2120.5953 2122.1559 2137.5018 2111.7519 2132.82 
1875 1937 2139.8427 2155.9689 2231.1378 2115.3933 2145.825 2084.4414 2122.416 2129.4387 2103.4287 2136.7215 2121.8958 2139.3225 2117.9943 2133.3402 
1877 1933 2134.3806 2154.1482 2219.9535 2115.9135 2127.8781 2075.3379 2121.6357 2126.0574 2096.406 2121.1155 2120.5953 2127.3579 2108.8908 2123.7165 
1879 1922 2133.0801 2147.3856 2216.5722 2112.2721 2120.0751 2074.2975 2120.3352 2121.6357 2089.1232 2104.4691 2119.5549 2122.6761 2104.4691 2119.815 
1882 1921 2137.5018 2157.2694 2226.456 2122.6761 2141.1432 2083.9212 2122.9362 2128.9185 2100.3075 2123.1963 2119.2948 2135.9412 2118.7746 2128.1382 
1880 1925 2135.6811 2167.1532 2229.5772 2134.6407 2140.3629 2088.3429 2129.4387 2135.6811 2111.7519 2136.9816 2117.214 2141.6634 2128.1382 2132.2998 
1878 1947 2128.1382 2158.83 2222.0343 2130.7392 2128.6584 2083.401 2130.9993 2130.7392 2107.3302 2121.1155 2118.2544 2131.5195 2120.5953 2126.8377 
1877 2016 2123.4564 2154.4083 2221.7742 2128.1382 2138.8023 2079.4995 2132.82 2129.9589 2110.4514 2119.0347 2118.2544 2132.0397 2121.1155 2128.3983 
1878 2030 2122.416 2160.3906 2225.9358 2132.82 2146.8654 2075.8581 2139.8427 2137.5018 2124.2367 2135.1609 2114.3529 2143.7442 2130.219 2136.2013 
1885 1976 2126.0574 2158.5699 2224.3752 2130.219 2135.9412 2064.1536 2137.7619 2135.1609 2123.1963 2137.2417 2116.9539 2143.4841 2127.618 2136.4614 
1887 1928 2123.7165 2147.9058 2215.7919 2117.7342 2120.0751 2040.4845 2121.8958 2126.5776 2105.7696 2121.8958 2122.9362 2129.4387 2113.5726 2129.9589 
1891 1893 2112.5322 2137.2417 2202.2667 2109.1509 2114.3529 2017.5957 2110.4514 2128.1382 2095.8858 2107.0701 2122.1559 2118.2544 2104.7292 2126.0574 
1891 1888 2115.3933 2138.5422 2199.9258 2110.4514 2118.7746 2010.573 2107.5903 2128.1382 2101.3479 2111.4918 2121.1155 2120.8554 2105.5095 2129.9589 
1890 1912 2126.8377 2145.5649 2206.4283 2110.9716 2124.2367 2010.3129 2100.3075 2116.9539 2103.6888 2123.7165 2123.1963 2125.7973 2106.0297 2130.9993 
1886 1967 2121.8958 2144.2644 2200.446 2105.5095 2120.5953 2003.5503 2097.4464 2113.8327 2096.406 2117.9943 2123.7165 2121.6357 2103.4287 2122.9362 
1884 1983 2115.3933 2137.5018 2192.9031 2104.209 2121.3756 1999.9089 2104.9893 2124.2367 2096.406 2111.4918 2122.9362 2121.1155 2107.5903 2120.8554 
1884 1990 2120.8554 2136.7215 2194.4637 2109.411 2130.7392 2002.5099 2108.3706 2128.9185 2100.8277 2118.7746 2122.6761 2125.017 2109.6711 2125.017 
1883 1989 2122.9362 2145.3048 2191.3425 2119.0347 2121.6357 2000.6892 2106.5499 2130.219 2100.0474 2119.2948 2122.6761 2123.1963 2103.9489 2123.7165 
1883 1995 2122.6761 2153.628 2185.6203 2125.5372 2107.5903 1992.8862 2107.5903 2133.6003 2096.9262 2105.5095 2122.9362 2120.3352 2106.81 2120.0751 
1884 1997 2129.4387 2145.3048 2182.7592 2114.613 2116.4337 1981.1817 2102.6484 2128.1382 2088.603 2094.8454 2123.4564 2115.1332 2111.4918 2114.8731 
1891 2000 2130.4791 2125.2771 2172.0951 2098.2267 2121.1155 1969.2171 2093.2848 2120.0751 2078.7192 2089.6434 2122.6761 2103.1686 2103.9489 2107.0701 
1894 2003 2125.5372 2118.2544 2162.2113 2099.007 2108.6307 1965.8358 2093.0247 2122.416 2082.3606 2085.2217 2121.6357 2094.3252 2096.6661 2104.7292 
1898 2007 2122.1559 2118.5145 2160.3906 2100.8277 2101.3479 1967.9166 2096.9262 2124.2367 2084.7015 2076.6384 2122.416 2088.603 2091.7242 2103.6888 
1905 2011 2124.4968 2114.3529 2159.3502 2096.9262 2106.81 1970.2575 2095.8858 2121.1155 2079.4995 2072.7369 2123.4564 2088.0828 2090.6838 2102.1282 
1908 2014 2130.219 2117.4741 2160.1305 2103.6888 2107.8504 1975.4595 2096.1459 2121.1155 2086.5222 2082.8808 2123.9766 2093.0247 2099.2671 2109.1509 
1909 2016 2132.0397 2121.3756 2163.2517 2107.8504 2095.6257 1982.4822 2099.7873 2123.9766 2097.4464 2094.5853 2122.1559 2090.6838 2103.1686 2116.9539 
1913 2014 2129.9589 2119.815 2164.032 2103.9489 2093.0247 1985.6034 2101.608 2123.9766 2097.9666 2096.6661 2123.1963 2086.7823 2099.7873 2117.4741 
1918 2010 2127.618 2113.0524 2158.0497 2102.6484 2106.0297 1982.7423 2098.7469 2118.5145 2088.0828 2082.8808 2126.3175 2084.1813 2097.9666 2111.2317 
1920 2002 2123.9766 2102.6484 2147.1255 2091.7242 2107.0701 1983.2625 2096.406 2113.8327 2079.4995 2069.6157 2124.4968 2074.5576 2089.3833 2104.4691 
1924 1987 2124.2367 2095.8858 2142.4437 2074.2975 2093.0247 1988.2044 2098.7469 2115.6534 2080.0197 2072.4768 2123.4564 2067.795 2078.199 2102.1282 
1925 1981 2131.7796 2098.2267 2147.6457 2079.7596 2085.7419 1984.0428 2098.4868 2118.5145 2077.9389 2069.0955 2127.8781 2072.7369 2077.9389 2099.5272 
1927 1976 2141.4033 2103.9489 2157.5295 2095.8858 2080.2798 1976.2398 2092.5045 2116.4337 2068.8354 2054.79 2130.4791 2083.9212 2080.0197 2098.2267 
1929 1977 2149.7265 2097.7065 2165.8527 2088.8631 2067.5349 1969.9974 2078.9793 2109.9312 2058.4314 2049.0678 2132.2998 2094.3252 2076.3783 2099.007 
1930 1975 2163.5118 2075.598 2160.1305 2072.997 2049.8481 1949.7096 2060.7723 2103.9489 2040.2244 2036.8431 2142.7038 2088.8631 2065.194 2089.6434 
1931 1977 2180.6784 2062.3329 2149.9866 2070.6561 2031.381 1929.942 2054.0097 2107.5903 2024.0982 2014.9947 2149.4664 2076.8985 2052.189 2079.4995 
1930 1979 2181.7188 2069.6157 2161.6911 2077.1586 2038.1436 1940.0859 2065.9743 2119.0347 2037.3633 2017.3356 2144.2644 2089.3833 2059.7319 2089.1232 
1932 1984 2171.3148 2082.6207 2185.3602 2093.0247 2060.2521 1961.9343 2080.5399 2125.7973 2056.8708 2036.0628 2136.7215 2116.4337 2086.002 2105.7696 
1931 1990 2174.436 2101.8681 2199.6657 2118.5145 2063.8935 1977.2802 2093.2848 2129.1786 2063.3733 2049.0678 2134.1205 2133.3402 2109.6711 2119.2948 
1927 2004 2178.5976 2128.3983 2211.3702 2141.6634 2075.598 1997.568 2106.0297 2133.6003 2080.5399 2067.0147 2132.5599 2146.0851 2125.7973 2135.1609 
1924 2012 2164.032 2135.1609 2218.9131 2148.9462 2101.608 2013.4341 2111.2317 2135.9412 2102.1282 2080.2798 2125.5372 2157.5295 2133.6003 2144.0043 
1920 2024 2151.2871 2123.4564 2211.6303 2144.0043 2095.6257 2019.9366 2116.1736 2137.2417 2110.4514 2078.7192 2120.3352 2161.431 2133.3402 2146.8654 
1919 2026 2150.2467 2137.2417 2219.6934 2156.4891 2087.5626 2039.184 2129.9589 2139.3225 2123.4564 2088.603 2120.5953 2172.3552 2142.7038 2158.5699 
1920 2021 2144.2644 2162.4714 2241.2817 2179.1178 2115.9135 2057.6511 2137.5018 2134.6407 2136.9816 2106.0297 2119.815 2186.4006 2157.7896 2167.1532 
1920 2017 2142.9639 2147.6457 2228.5368 2162.4714 2115.6534 2041.2648 2123.1963 2117.7342 2117.214 2090.9439 2120.5953 2172.0951 2141.1432 2153.3679 
1922 2019 2153.8881 2116.4337 2203.047 2128.1382 2073.7773 2018.8962 2106.2898 2105.7696 2091.4641 2067.0147 2125.017 2150.7669 2114.613 2139.5826 
1921 2024 2155.4487 2129.1786 2217.6126 2142.4437 2078.7192 2038.6638 2114.0928 2119.0347 2107.3302 2085.7419 2123.4564 2167.6734 2132.2998 2154.1482 
1920 2041 2145.825 2166.633 2245.1832 2181.4587 2126.5776 2072.7369 2138.2821 2138.022 2142.4437 2121.1155 2114.8731 2199.4056 2170.5345 2178.3375 
1920 2049 2139.5826 2175.4764 2245.1832 2190.5622 2137.5018 2082.1005 2148.9462 2137.2417 2153.3679 2132.2998 2112.7923 2202.5268 2177.2971 2181.7188 
1923 2053 2136.4614 2168.1936 2237.1201 2185.3602 2122.9362 2083.1409 2146.6053 2129.6988 2147.1255 2132.2998 2113.5726 2194.7238 2167.9335 2173.3956 
1924 2059 2135.421 2175.9966 2242.062 2194.9839 2139.0624 2095.1055 2153.3679 2138.5422 2155.9689 2139.8427 2112.5322 2202.0066 2176.2567 2177.037 
1927 2059 2138.022 2191.3425 2246.4837 2206.9485 2159.6103 2101.8681 2161.431 2148.6861 2172.0951 2145.5649 2112.5322 2206.9485 2184.84 2185.1001 
1928 2063 2139.5826 2193.4233 2243.1024 2206.1682 2154.1482 2098.2267 2158.5699 2146.8654 2174.6961 2145.825 2113.3125 2202.7869 2183.2794 2184.84 
1930 2065 2137.5018 2180.9385 2233.7388 2197.5849 2141.9235 2091.204 2153.3679 2140.623 2164.5522 2139.3225 2113.0524 2194.7238 2178.0774 2177.8173 
1933 2065 2135.9412 2167.9335 2222.2944 2189.5218 2133.3402 2085.7419 2153.628 2136.4614 2159.8704 2131.5195 2113.5726 2182.239 2170.0143 2171.5749 
1934 2062 2137.2417 2164.5522 2219.9535 2185.8804 2123.7165 2087.3025 2154.6684 2134.1205 2161.9512 2132.2998 2114.3529 2175.9966 2166.3729 2172.6153 
1936 2055 2145.3048 2164.032 2223.855 2186.4006 2126.8377 2090.6838 2154.1482 2131.2594 2160.6507 2134.1205 2114.613 2179.3779 2168.1936 2177.037 
1935 2049 2151.8073 2156.4891 2218.9131 2184.0597 2131.7796 2086.5222 2151.8073 2126.8377 2157.2694 2126.3175 2114.3529 2172.0951 2162.7315 2173.1355 
1934 2040 2145.825 2148.426 2209.5495 2172.3552 2121.1155 2080.2798 2146.8654 2121.6357 2153.8881 2119.815 2114.0928 2156.7492 2148.1659 2163.2517 
1933 2039 2145.825 2152.8477 2213.451 2167.9335 2125.017 2087.3025 2149.2063 2126.0574 2160.6507 2131.5195 2114.3529 2163.2517 2143.7442 2165.0724 
1935 2035 2155.1886 2156.4891 2220.9939 2173.6557 2137.5018 2095.6257 2154.6684 2131.7796 2167.4133 2136.7215 2114.0928 2170.2744 2148.426 2172.0951 
1934 2034 2153.628 2153.8881 2218.653 2171.835 2129.6988 2091.4641 2149.2063 2123.1963 2157.2694 2126.3175 2114.8731 2159.3502 2146.3452 2170.0143 
1933 2032 2145.825 2157.5295 2217.3525 2165.0724 2121.6357 2087.5626 2142.9639 2119.815 2151.027 2129.4387 2115.3933 2161.431 2144.2644 2166.3729 
1936 2036 2145.5649 2159.3502 2217.8727 2162.7315 2127.0978 2089.3833 2146.8654 2131.2594 2160.9108 2139.8427 2114.613 2170.2744 2147.9058 2167.6734 
1935 2038 2146.6053 2150.7669 2212.1505 2162.9916 2125.5372 2089.3833 2147.6457 2130.9993 2162.9916 2133.8604 2114.0928 2162.9916 2145.0447 2166.633 
1938 2043 2146.0851 2148.1659 2207.4687 2156.229 2122.416 2089.1232 2143.4841 2121.1155 2153.628 2131.2594 2114.3529 2158.83 2136.9816 2163.7719 
1938 2043 2149.7265 2155.4487 2204.6076 2150.5068 2130.4791 2092.5045 2147.1255 2127.0978 2155.7088 2140.623 2114.0928 2167.4133 2140.623 2164.032 
1941 2042 2153.8881 2163.5118 2208.5091 2162.9916 2134.9008 2094.0651 2151.027 2130.7392 2160.3906 2139.5826 2113.8327 2171.5749 2149.7265 2166.1128 
1943 2042 2152.8477 2170.2744 2219.6934 2182.4991 2134.9008 2094.8454 2145.825 2120.3352 2153.1078 2138.5422 2114.3529 2173.9158 2150.2467 2167.6734 
1946 2042 2149.7265 2173.3956 2220.4737 2188.7415 2138.2821 2098.2267 2144.0043 2123.1963 2150.7669 2144.2644 2114.3529 2176.5168 2148.9462 2166.633 
1948 2040 2148.1659 2171.835 2212.1505 2190.8223 2142.7038 2101.0878 2150.5068 2133.6003 2160.6507 2139.5826 2113.8327 2170.0143 2147.3856 2164.032 
1951 2040 2147.9058 2168.9739 2212.1505 2194.4637 2146.6053 2103.4287 2152.3275 2126.0574 2162.9916 2135.6811 2113.5726 2163.7719 2140.8831 2161.1709 
1953 2039 2145.5649 2164.8123 2210.85 2188.2213 2142.1836 2101.0878 2145.0447 2116.1736 2154.9285 2141.6634 2113.5726 2161.6911 2135.9412 2155.4487 
1953 2040 2144.2644 2162.4714 2202.5268 2183.0193 2132.2998 2098.4868 2143.4841 2119.2948 2155.1886 2142.9639 2113.5726 2157.5295 2134.1205 2152.0674 
1958 2041 2146.0851 2166.633 2204.3475 2187.7011 2136.9816 2106.81 2152.3275 2121.8958 2160.9108 2141.9235 2113.3125 2157.2694 2129.9589 2157.2694 
1960 2040 2146.8654 2172.3552 2210.3298 2187.441 2150.5068 2114.8731 2155.1886 2119.5549 2156.4891 2146.3452 2114.0928 2164.032 2128.6584 2161.1709 
1961 2041 2145.3048 2173.3956 2208.7692 2183.0193 2151.027 2111.4918 2147.9058 2119.0347 2149.9866 2143.4841 2114.3529 2166.8931 2133.6003 2158.5699 
1963 2040 2147.9058 2175.4764 2211.6303 2184.5799 2152.0674 2112.5322 2146.6053 2121.6357 2154.4083 2143.4841 2113.0524 2169.4941 2138.022 2160.1305 
1966 2042 2151.5472 2182.7592 2218.3929 2188.2213 2156.229 2120.3352 2149.2063 2126.0574 2159.6103 2155.7088 2113.3125 2180.1582 2139.0624 2163.7719 
1968 2044 2151.2871 2187.1809 2216.8323 2189.5218 2154.9285 2117.9943 2145.825 2128.3983 2158.3098 2159.6103 2115.6534 2185.3602 2144.0043 2161.1709 
1975 2048 2150.7669 2182.7592 2208.5091 2186.1405 2155.7088 2109.6711 2142.9639 2126.0574 2155.7088 2151.8073 2115.9135 2178.3375 2145.5649 2158.5699 
1980 2049 2148.6861 2176.2567 2200.1859 2173.6557 2150.2467 2103.9489 2140.8831 2123.1963 2146.6053 2143.4841 2114.8731 2168.9739 2131.7796 2153.8881 
1985 2047 2142.4437 2171.3148 2189.5218 2164.5522 2140.623 2098.4868 2136.4614 2125.5372 2135.6811 2135.6811 2115.3933 2159.0901 2121.3756 2141.4033 
1987 2044 2138.5422 2166.1128 2181.4587 2167.6734 2143.224 2094.8454 2135.9412 2128.3983 2136.7215 2133.3402 2115.9135 2151.5472 2126.5776 2134.1205 
1992 2036 2137.2417 2166.3729 2181.4587 2169.234 2144.0043 2093.805 2134.1205 2125.5372 2138.8023 2137.7619 2115.6534 2153.8881 2128.9185 2135.6811 
1996 2032 2137.7619 2174.6961 2186.1405 2171.0547 2139.5826 2093.5449 2131.7796 2125.017 2135.1609 2138.022 2115.3933 2160.9108 2126.3175 2134.9008 
1996 2031 2142.9639 2177.5572 2191.6026 2184.5799 2149.9866 2096.6661 2137.5018 2133.0801 2142.4437 2136.4614 2115.6534 2164.5522 2135.9412 2139.0624 
1998 2030 2144.2644 2173.1355 2194.4637 2192.643 2162.2113 2101.8681 2140.1028 2134.6407 2151.2871 2141.4033 2115.6534 2165.0724 2144.7846 2148.426 
1998 2028 2139.8427 2177.5572 2199.1455 2195.5041 2158.3098 2104.7292 2136.9816 2128.3983 2147.9058 2146.0851 2114.3529 2169.234 2140.1028 2150.5068 
1999 2024 2142.4437 2189.2617 2208.249 2208.7692 2152.3275 2109.9312 2142.4437 2132.2998 2148.1659 2147.6457 2113.5726 2174.6961 2140.1028 2149.7265 
2000 2024 2145.5649 2190.5622 2214.2313 2216.052 2154.6684 2114.613 2147.9058 2138.022 2154.4083 2145.5649 2114.613 2178.3375 2147.6457 2155.1886 
1999 2027 2142.9639 2186.9208 2223.0747 2220.2136 2152.8477 2111.4918 2139.8427 2129.6988 2148.6861 2137.7619 2114.3529 2184.84 2147.6457 2156.229 
2000 2034 2152.3275 2194.2036 2277.4356 2253.2463 2141.4033 2103.4287 2138.022 2141.6634 2145.5649 2142.1836 2120.0751 2219.6934 2150.2467 2158.83 
2000 2036 2157.7896 2198.6253 2291.481 2261.3094 2159.6103 2105.5095 2135.9412 2141.6634 2142.9639 2138.2821 2123.1963 2239.461 2161.6911 2163.7719 
2000 2038 2162.7315 2210.0697 2292.2613 2277.6957 2161.1709 2104.4691 2125.5372 2130.9993 2129.9589 2132.5599 2121.8958 2245.7034 2163.5118 2158.83 
2000 2036 2165.3325 2211.8904 2288.6199 2284.1982 2147.3856 2098.7469 2120.3352 2133.3402 2127.3579 2134.3806 2123.4564 2237.6403 2160.1305 2153.3679 
2001 2032 2163.7719 2201.4864 2281.8573 2271.7134 2146.3452 2091.7242 2117.4741 2136.4614 2127.618 2127.3579 2125.5372 2230.8777 2157.5295 2148.426 
2001 2029 2163.2517 2196.0243 2270.673 2265.9912 2148.426 2085.2217 2110.7115 2126.8377 2109.9312 2105.7696 2122.9362 2222.8146 2151.027 2135.9412 
2001 2025 2168.9739 2198.8854 2260.269 2269.6326 2144.2644 2082.1005 2112.2721 2127.618 2103.1686 2097.4464 2124.4968 2208.249 2141.4033 2126.5776 
2003 2020 2172.6153 2191.0824 2248.3044 2260.0089 2140.1028 2080.8 2116.9539 2139.3225 2117.214 2107.3302 2131.5195 2198.6253 2137.2417 2129.6988 
2004 2018 2167.1532 2173.3956 2230.6176 2237.6403 2139.0624 2074.0374 2107.8504 2134.3806 2112.7923 2106.81 2131.2594 2191.6026 2135.421 2127.3579 
2007 2016 2161.6911 2159.3502 2218.3929 2224.6353 2132.5599 2067.5349 2099.5272 2121.1155 2097.9666 2087.0424 2124.2367 2176.5168 2125.7973 2115.3933 
2008 2013 2160.3906 2148.1659 2211.1101 2222.0343 2126.8377 2070.6561 2104.4691 2121.6357 2102.6484 2077.9389 2121.8958 2162.9916 2119.815 2111.4918 
2009 2003 2160.9108 2149.7265 2200.446 2218.1328 2134.3806 2078.4591 2114.613 2135.421 2113.5726 2089.9035 2123.1963 2160.9108 2130.4791 2117.9943 
2012 1999 2161.6911 2162.4714 2192.3829 2219.1732 2141.4033 2081.3202 2123.4564 2140.8831 2116.9539 2097.4464 2122.1559 2159.6103 2134.9008 2120.3352 
2014 1995 2156.7492 2160.1305 2181.9789 2215.0116 2128.3983 2080.0197 2122.9362 2130.7392 2116.6938 2092.7646 2121.3756 2146.6053 2119.0347 2113.5726 
2017 1994 2146.8654 2148.6861 2167.1532 2202.0066 2130.4791 2081.5803 2116.4337 2127.618 2119.2948 2096.6661 2120.8554 2138.2821 2120.8554 2111.4918 
2020 1998 2144.0043 2146.8654 2161.1709 2198.3652 2153.8881 2084.7015 2120.8554 2139.0624 2130.7392 2109.411 2120.8554 2141.1432 2139.5826 2117.4741 
2022 2000 2148.1659 2149.7265 2164.2921 2203.3071 2138.8023 2090.1636 2132.0397 2142.7038 2139.0624 2114.0928 2120.8554 2140.623 2136.4614 2123.1963 
2028 2001 2146.0851 2155.7088 2162.2113 2201.2263 2120.5953 2096.1459 2132.0397 2138.5422 2136.7215 2113.8327 2117.214 2136.2013 2129.9589 2122.416 
2030 1999 2141.9235 2167.1532 2159.3502 2199.9258 2158.5699 2100.0474 2129.9589 2144.7846 2141.4033 2123.1963 2114.0928 2138.022 2144.7846 2119.815 
2031 1994 2138.5422 2162.4714 2154.6684 2198.1051 2180.9385 2095.8858 2127.0978 2141.4033 2140.3629 2125.5372 2115.1332 2135.9412 2148.6861 2115.3933 
2036 1986 2132.0397 2154.4083 2148.426 2195.244 2144.0043 2093.2848 2119.0347 2125.5372 2125.017 2115.9135 2114.0928 2130.4791 2138.022 2113.0524 
2036 1987 2136.7215 2172.6153 2158.83 2212.4106 2136.4614 2109.9312 2129.9589 2136.4614 2139.3225 2126.8377 2112.2721 2145.3048 2158.0497 2129.9589 
2037 2001 2149.4664 2184.3198 2174.436 2228.0166 2181.9789 2127.0978 2153.628 2159.6103 2175.2163 2151.2871 2113.8327 2163.7719 2186.4006 2151.5472 
2039 2015 2146.6053 2167.9335 2167.9335 2215.7919 2191.6026 2122.6761 2154.4083 2153.628 2173.6557 2149.2063 2113.5726 2155.9689 2174.1759 2148.426 
2042 2018 2139.8427 2155.7088 2150.7669 2200.9662 2154.9285 2110.4514 2143.4841 2138.5422 2149.2063 2126.0574 2112.012 2137.2417 2151.2871 2133.3402 
2043 2005 2148.9462 2154.6684 2145.5649 2200.1859 2134.9008 2106.5499 2144.0043 2140.8831 2150.5068 2112.5322 2114.613 2126.8377 2151.027 2132.0397 
2045 1971 2153.3679 2141.4033 2138.5422 2189.5218 2141.9235 2095.8858 2136.2013 2137.7619 2154.6684 2108.6307 2116.1736 2114.0928 2141.1432 2128.6584 
2046 1967 2146.0851 2125.5372 2125.7973 2174.436 2137.7619 2081.8404 2122.1559 2125.5372 2137.7619 2105.5095 2114.613 2098.7469 2119.2948 2116.1736 
2044 1976 2145.0447 2119.5549 2121.3756 2169.7542 2113.8327 2081.5803 2121.8958 2120.3352 2126.5776 2100.0474 2114.8731 2090.9439 2116.4337 2109.6711 
2043 1984 2146.6053 2115.9135 2127.0978 2168.4537 2116.4337 2091.204 2129.6988 2120.3352 2138.2821 2101.0878 2115.9135 2093.0247 2126.0574 2116.4337 
2041 1992 2145.825 2117.7342 2134.6407 2171.5749 2134.6407 2099.2671 2133.0801 2121.6357 2146.8654 2113.8327 2113.5726 2100.8277 2127.618 2125.2771 
2036 1991 2145.825 2122.9362 2134.1205 2173.3956 2126.5776 2098.4868 2130.7392 2123.1963 2138.8023 2114.3529 2115.3933 2102.9085 2124.4968 2125.017 
2034 1989 2147.6457 2120.8554 2127.0978 2163.2517 2115.1332 2093.2848 2125.5372 2121.3756 2130.219 2095.1055 2121.3756 2094.3252 2120.3352 2119.2948 
2032 1989 2151.2871 2117.7342 2124.2367 2153.8881 2120.3352 2093.0247 2126.0574 2121.6357 2131.7796 2093.2848 2122.9362 2090.4237 2119.2948 2119.2948 
2030 1990 2151.2871 2111.7519 2118.5145 2147.9058 2119.815 2090.1636 2129.1786 2123.9766 2130.219 2106.2898 2121.3756 2087.8227 2114.613 2115.6534 
2031 1998 2147.6457 2106.81 2112.012 2140.623 2118.7746 2083.9212 2125.017 2119.815 2121.8958 2103.6888 2121.8958 2081.8404 2106.2898 2107.0701 
2032 2002 2146.3452 2107.5903 2110.4514 2136.4614 2121.6357 2080.0197 2121.1155 2115.9135 2119.0347 2089.3833 2122.416 2076.1182 2100.3075 2101.608 
2034 2006 2145.5649 2101.3479 2105.5095 2132.5599 2109.411 2079.7596 2122.9362 2121.8958 2123.7165 2085.7419 2121.3756 2068.8354 2096.9262 2097.1863 
2034 2007 2149.9866 2097.9666 2108.3706 2134.1205 2097.9666 2085.4818 2126.5776 2125.2771 2130.7392 2097.7065 2121.3756 2071.6965 2100.0474 2100.0474 
2038 2005 2156.4891 2109.1509 2120.0751 2142.7038 2105.2494 2090.6838 2127.3579 2119.0347 2133.3402 2101.8681 2122.1559 2081.3202 2106.2898 2108.1105 
2039 2005 2150.2467 2108.8908 2115.9135 2141.1432 2106.5499 2085.2217 2122.1559 2112.2721 2128.1382 2086.5222 2122.6761 2074.8177 2101.3479 2103.6888 
