H:M:S.f Gyro(x) Gyro(y) F3 FC5 AF3 F7 T7 P7 O1 O2 P8 T8 F8 AF4 FC6 F4
14:45:08.573320 2047 2039 2114.613 2111.7519 2105.2494 2094.0651 1986.3837 2107.0701 2120.5953 2110.7115 2119.2948 2107.8504 2094.3252 2087.3025 2108.3706 2135.421 
14:45:08.574291 2048 2039 2115.6534 2114.613 2106.0297 2097.4464 1990.0251 2105.5095 2122.416 2104.7292 2118.5145 2114.0928 2100.0474 2090.1636 2108.8908 2133.6003 
14:45:08.575289 2048 2039 2111.7519 2119.5549 2104.7292 2108.6307 1998.8685 2115.6534 2127.8781 2107.0701 2121.3756 2113.3125 2108.1105 2097.1863 2113.5726 2135.6811 
14:45:08.576282 2048 2040 2111.7519 2118.2544 2108.6307 2115.1332 2004.3306 2122.6761 2128.1382 2115.9135 2126.0574 2116.1736 2109.6711 2096.1459 2118.2544 2134.6407 
14:45:08.577281 2049 2040 2116.1736 2122.416 2112.5322 2118.2544 2010.573 2120.5953 2127.3579 2123.9766 2132.0397 2138.022 2116.4337 2099.2671 2124.2367 2136.2013 
14:45:08.578282 2045 2039 2128.3983 2137.7619 2118.5145 2128.1382 2023.578 2126.0574 2133.3402 2139.0624 2143.224 2156.4891 2140.1028 2124.4968 2144.2644 2132.0397 
14:45:08.579289 2047 2039 2123.7165 2140.8831 2110.1913 2127.8781 2022.7977 2127.618 2130.4791 2144.7846 2140.1028 2143.7442 2153.3679 2143.4841 2162.2113 2137.7619 
14:45:08.580280 2046 2040 2124.4968 2148.9462 2112.2721 2132.2998 2021.7573 2126.3175 2126.3175 2147.1255 2136.4614 2140.8831 2161.9512 2150.2467 2172.0951 2136.9816 
14:45:08.581302 2045 2040 2125.7973 2146.3452 2114.613 2133.3402 2020.1967 2122.1559 2124.2367 2145.3048 2136.9816 2144.2644 2154.4083 2139.8427 2161.1709 2139.0624 
14:45:08.586345 2044 2041 2132.0397 2152.5876 2116.1736 2150.2467 2043.6057 2149.2063 2152.3275 2171.0547 2164.2921 2168.7138 2163.7719 2151.027 2176.5168 2133.3402 
14:45:08.593294 2044 2042 2115.9135 2139.0624 2100.8277 2138.8023 2037.6234 2151.8073 2158.3098 2159.8704 2161.1709 2164.2921 2147.1255 2135.421 2162.7315 2130.4791 
14:45:08.601406 2043 2041 2120.5953 2147.9058 2105.5095 2143.7442 2038.6638 2155.1886 2163.5118 2158.0497 2161.1709 2170.2744 2146.3452 2131.2594 2154.6684 2128.1382 
14:45:08.609412 2041 2039 2125.7973 2149.2063 2109.1509 2139.0624 2027.9997 2144.0043 2150.2467 2156.4891 2153.628 2167.4133 2141.9235 2129.9589 2149.2063 2135.1609 
14:45:08.617325 2041 2040 2120.5953 2141.6634 2106.0297 2129.9589 2017.5957 2140.623 2147.6457 2145.3048 2145.3048 2159.0901 2132.5599 2121.8958 2143.224 2134.3806 
14:45:08.625324 2041 2039 2106.2898 2124.7569 2099.007 2115.6534 2005.371 2133.0801 2142.1836 2127.3579 2132.0397 2141.9235 2115.3933 2097.1863 2125.5372 2128.3983 
14:45:08.633933 2042 2039 2107.8504 2123.1963 2104.209 2112.012 2003.8104 2128.1382 2133.8604 2121.8958 2128.9185 2127.3579 2110.9716 2091.7242 2116.9539 2128.6584 
14:45:08.641390 2040 2041 2105.2494 2123.7165 2101.8681 2111.4918 2000.6892 2123.1963 2122.6761 2113.8327 2125.2771 2113.0524 2111.4918 2097.4464 2112.5322 2133.3402 
14:45:08.649325 2038 2038 2108.1105 2116.6938 2100.0474 2104.7292 1990.8054 2117.7342 2120.3352 2106.0297 2121.1155 2108.1105 2106.2898 2096.9262 2108.6307 2138.022 
14:45:08.664954 2041 2039 2115.1332 2122.9362 2106.5499 2101.608 1994.1867 2112.2721 2120.8554 2122.1559 2122.416 2123.9766 2119.0347 2120.0751 2130.219 2137.2417 
14:45:08.672390 2040 2039 2113.8327 2106.0297 2109.6711 2091.9843 1989.765 2103.9489 2115.9135 2125.5372 2127.3579 2112.5322 2106.81 2108.6307 2117.4741 2135.9412 
14:45:08.680326 2041 2039 2113.5726 2099.5272 2108.8908 2089.6434 2001.7296 2102.1282 2120.0751 2141.1432 2138.5422 2123.4564 2100.8277 2102.6484 2117.7342 2139.5826 
14:45:08.688321 2041 2040 2110.7115 2109.6711 2109.6711 2097.4464 2017.3356 2106.81 2122.6761 2137.2417 2134.3806 2134.1205 2104.4691 2106.5499 2123.9766 2136.4614 
14:45:08.696664 2042 2040 2103.9489 2116.6938 2102.1282 2108.1105 2027.2194 2117.7342 2129.9589 2127.3579 2130.9993 2125.017 2104.9893 2105.2494 2118.2544 2136.2013 
14:45:08.704366 2042 2040 2108.6307 2122.9362 2096.6661 2118.5145 2036.8431 2130.219 2145.0447 2143.4841 2145.3048 2127.0978 2113.3125 2110.1913 2122.1559 2130.4791 
14:45:08.712323 2041 2039 2109.1509 2125.7973 2089.9035 2122.9362 2036.8431 2132.5599 2147.6457 2146.3452 2142.9639 2144.5245 2121.8958 2113.8327 2127.3579 2136.7215 
14:45:08.720323 2042 2039 2117.7342 2141.6634 2095.8858 2138.2821 2050.3683 2144.0043 2154.9285 2153.8881 2149.4664 2167.9335 2143.7442 2133.6003 2148.1659 2136.7215 
14:45:08.727723 2042 2038 2111.2317 2133.6003 2090.6838 2128.3983 2043.8658 2135.421 2142.7038 2149.9866 2147.1255 2150.5068 2135.6811 2132.5599 2147.1255 2137.5018 
14:45:08.735401 2042 2039 2120.3352 2147.9058 2100.5676 2144.0043 2055.3102 2148.1659 2151.2871 2163.5118 2155.1886 2152.8477 2149.4664 2145.0447 2160.3906 2134.1205 
14:45:08.743327 2045 2039 2130.9993 2156.7492 2113.3125 2148.6861 2054.5299 2151.2871 2155.7088 2153.628 2145.0447 2150.2467 2157.5295 2146.8654 2156.229 2138.2821 
14:45:08.751328 2044 2040 2136.7215 2167.6734 2120.3352 2155.7088 2054.5299 2155.9689 2161.6911 2150.2467 2144.2644 2150.5068 2163.7719 2152.5876 2156.4891 2137.2417 
14:45:08.759737 2044 2039 2119.815 2150.7669 2111.2317 2140.3629 2032.6815 2136.7215 2139.5826 2137.2417 2133.0801 2131.5195 2140.1028 2132.82 2141.4033 2135.6811 
14:45:08.767356 2044 2039 2117.9943 2134.9008 2116.1736 2123.4564 2019.9366 2122.1559 2126.5776 2132.82 2130.219 2123.9766 2123.4564 2121.8958 2132.82 2135.6811 
14:45:08.775328 2044 2039 2115.3933 2125.017 2112.012 2114.613 2019.4164 2114.0928 2125.5372 2135.1609 2134.9008 2131.2594 2120.0751 2123.4564 2129.9589 2138.2821 
14:45:08.783327 2043 2039 2112.7923 2113.0524 2101.3479 2104.4691 2011.0932 2106.2898 2120.3352 2129.6988 2132.5599 2128.1382 2110.1913 2117.214 2121.8958 2140.623 
14:45:08.791440 2043 2039 2114.8731 2113.8327 2099.007 2100.3075 2006.9316 2103.4287 2114.613 2132.82 2128.9185 2121.6357 2110.7115 2119.5549 2125.7973 2139.3225 
14:45:08.798316 2043 2040 2114.613 2107.8504 2102.9085 2090.4237 2005.371 2097.1863 2110.4514 2127.0978 2127.0978 2113.5726 2102.3883 2116.6938 2122.1559 2141.6634 
14:45:08.806317 2042 2039 2107.8504 2098.4868 2101.0878 2085.2217 2011.0932 2102.6484 2118.2544 2117.4741 2132.0397 2118.5145 2088.0828 2105.2494 2110.7115 2139.0624 
14:45:08.814313 2042 2040 2099.5272 2096.406 2098.7469 2086.2621 2018.1159 2109.411 2123.1963 2119.815 2129.9589 2123.4564 2091.7242 2097.9666 2108.8908 2137.7619 
14:45:08.822392 2043 2040 2105.5095 2099.5272 2106.5499 2091.204 2018.6361 2101.8681 2110.9716 2120.8554 2116.9539 2113.0524 2100.3075 2100.5676 2112.5322 2134.1205 
14:45:08.830308 2042 2041 2116.1736 2114.8731 2110.9716 2112.5322 2032.4214 2109.1509 2114.0928 2118.2544 2115.6534 2113.5726 2109.9312 2111.2317 2117.4741 2139.3225 
14:45:08.838318 2044 2041 2113.8327 2123.7165 2114.0928 2124.4968 2048.2875 2123.1963 2129.4387 2121.3756 2127.618 2131.5195 2122.416 2121.3756 2126.3175 2139.5826 
14:45:08.846466 2041 2040 2102.3883 2125.7973 2109.9312 2122.9362 2051.4087 2120.8554 2128.9185 2127.8781 2129.4387 2133.0801 2131.7796 2127.618 2134.6407 2140.1028 
14:45:08.854395 2042 2041 2114.613 2136.4614 2113.5726 2130.219 2055.0501 2122.6761 2127.0978 2140.1028 2135.9412 2130.7392 2138.2821 2139.8427 2144.5245 2129.1786 
14:45:08.861315 2044 2042 2124.2367 2136.4614 2113.3125 2130.9993 2051.1486 2123.7165 2123.7165 2138.8023 2136.7215 2137.7619 2136.2013 2141.6634 2141.6634 2132.0397 
14:45:08.869328 2041 2040 2129.1786 2152.3275 2119.815 2148.6861 2071.9566 2141.4033 2141.6634 2154.4083 2148.6861 2162.4714 2157.5295 2154.4083 2159.6103 2135.1609 
14:45:08.877425 2043 2040 2117.9943 2149.2063 2112.5322 2141.6634 2068.8354 2140.1028 2145.3048 2156.229 2149.7265 2155.1886 2151.8073 2151.8073 2161.431 2137.7619 
14:45:08.885392 2041 2041 2129.9589 2160.3906 2115.6534 2152.0674 2070.396 2149.2063 2153.628 2171.835 2162.9916 2163.5118 2161.431 2167.4133 2176.2567 2133.8604 
14:45:08.893308 2043 2041 2135.1609 2153.8881 2117.7342 2152.3275 2064.1536 2142.9639 2145.825 2164.5522 2152.3275 2164.2921 2154.9285 2158.0497 2165.0724 2139.3225 
14:45:08.901306 2042 2041 2129.6988 2147.1255 2118.2544 2150.7669 2065.194 2143.7442 2151.5472 2165.5926 2156.4891 2170.7946 2147.9058 2151.2871 2159.6103 2144.2644 
14:45:08.909419 2043 2041 2112.5322 2133.0801 2111.2317 2132.82 2048.8077 2128.9185 2139.0624 2154.1482 2153.3679 2148.9462 2137.2417 2142.7038 2153.628 2145.5649 
14:45:08.917396 2044 2040 2109.411 2127.3579 2113.3125 2126.3175 2039.4441 2120.8554 2129.4387 2132.5599 2136.9816 2127.8781 2124.4968 2129.6988 2136.9816 2140.3629 
14:45:08.924308 2044 2041 2105.5095 2122.6761 2110.7115 2124.2367 2037.1032 2117.9943 2129.6988 2126.3175 2127.3579 2135.421 2114.8731 2121.1155 2122.9362 2136.4614 
14:45:08.932305 2045 2040 2102.6484 2112.5322 2111.7519 2111.7519 2030.3406 2109.1509 2127.0978 2123.4564 2129.6988 2135.9412 2107.5903 2119.5549 2116.4337 2139.8427 
14:45:08.940433 2044 2040 2096.6661 2114.613 2111.7519 2114.613 2036.3229 2110.9716 2127.0978 2118.5145 2132.2998 2125.2771 2104.9893 2116.6938 2112.5322 2135.421 
14:45:08.948391 2044 2040 2092.5045 2111.7519 2108.6307 2112.2721 2035.2825 2108.1105 2120.0751 2107.5903 2119.2948 2105.2494 2096.1459 2109.6711 2102.6484 2131.2594 
14:45:08.956312 2042 2041 2102.9085 2107.3302 2112.2721 2098.7469 2026.6992 2096.406 2104.7292 2099.7873 2104.7292 2088.3429 2095.1055 2113.5726 2103.1686 2132.2998 
14:45:08.964307 2043 2041 2112.2721 2115.6534 2121.1155 2104.4691 2037.3633 2099.2671 2103.1686 2102.6484 2105.2494 2094.8454 2104.209 2117.214 2109.411 2140.8831 
14:45:08.972946 2044 2041 2112.2721 2116.1736 2127.0978 2112.2721 2049.8481 2106.81 2111.2317 2109.6711 2117.4741 2109.9312 2106.0297 2115.1332 2112.2721 2136.7215 
14:45:08.980375 2045 2042 2112.7923 2114.613 2119.5549 2111.2317 2050.8885 2105.2494 2109.411 2115.3933 2121.3756 2107.0701 2114.8731 2125.2771 2124.2367 2137.7619 
14:45:08.987333 2044 2042 2121.3756 2128.3983 2119.815 2123.7165 2060.7723 2116.6938 2119.2948 2128.1382 2125.2771 2117.214 2128.9185 2137.2417 2134.9008 2137.2417 
14:45:08.995336 2045 2041 2115.1332 2137.2417 2117.214 2138.2821 2075.8581 2133.8604 2139.8427 2145.0447 2138.5422 2144.7846 2130.219 2136.2013 2134.6407 2141.6634 
14:45:09.004030 2044 2041 2116.1736 2140.8831 2118.2544 2147.1255 2090.1636 2140.8831 2147.9058 2157.5295 2150.7669 2157.7896 2136.4614 2144.7846 2144.5245 2137.7619 
14:45:09.011387 2046 2042 2110.9716 2131.2594 2107.8504 2142.9639 2079.4995 2130.4791 2134.1205 2136.9816 2132.2998 2129.4387 2127.0978 2134.3806 2130.7392 2137.5018 
14:45:09.019390 2044 2043 2114.3529 2151.5472 2108.6307 2164.2921 2091.4641 2151.027 2151.027 2153.1078 2143.4841 2140.3629 2142.7038 2144.0043 2140.1028 2135.1609 
14:45:09.027334 2043 2042 2111.7519 2155.7088 2109.9312 2157.2694 2090.6838 2148.6861 2147.9058 2161.431 2150.2467 2148.9462 2144.5245 2149.2063 2145.0447 2141.6634 
14:45:09.035772 2044 2042 2121.6357 2160.6507 2117.9943 2159.6103 2099.007 2149.7265 2150.2467 2163.5118 2154.4083 2158.0497 2153.1078 2158.0497 2154.9285 2138.022 
14:45:09.043347 2043 2042 2121.6357 2146.0851 2116.6938 2151.2871 2089.1232 2145.0447 2148.1659 2152.5876 2146.3452 2154.1482 2146.8654 2150.5068 2148.1659 2136.9816 
14:45:09.051333 2040 2041 2118.7746 2138.022 2117.9943 2144.2644 2081.5803 2141.4033 2145.825 2152.5876 2145.825 2149.7265 2142.9639 2152.3275 2147.1255 2141.6634 
14:45:09.058326 2039 2041 2102.6484 2126.3175 2112.5322 2129.1786 2066.4945 2122.1559 2126.5776 2142.4437 2133.0801 2132.82 2123.9766 2137.5018 2132.0397 2142.9639 
14:45:09.066700 2041 2042 2102.6484 2121.6357 2116.9539 2120.3352 2052.4491 2110.4514 2119.0347 2126.3175 2121.8958 2116.1736 2111.7519 2126.5776 2117.7342 2137.2417 
14:45:09.074352 2040 2042 2114.3529 2129.4387 2122.416 2125.7973 2054.79 2111.7519 2120.3352 2119.815 2121.3756 2115.9135 2125.017 2138.5422 2127.0978 2137.5018 
14:45:09.082329 2039 2043 2123.4564 2127.0978 2126.0574 2120.0751 2054.79 2105.5095 2112.5322 2109.411 2116.1736 2103.4287 2125.7973 2139.3225 2126.8377 2144.2644 
14:45:09.090327 2039 2043 2121.3756 2122.9362 2123.9766 2109.9312 2051.1486 2099.2671 2110.4514 2108.6307 2115.9135 2094.5853 2119.0347 2136.7215 2121.3756 2142.7038 
14:45:09.098677 2039 2043 2113.0524 2115.3933 2117.9943 2102.9085 2042.5653 2093.805 2107.3302 2111.2317 2116.1736 2102.9085 2114.8731 2135.421 2120.0751 2141.9235 
14:45:09.106335 2039 2043 2116.6938 2103.1686 2118.7746 2099.007 2039.4441 2092.5045 2100.5676 2107.8504 2112.2721 2110.9716 2104.9893 2123.7165 2112.7923 2140.1028 
14:45:09.114329 2038 2040 2120.5953 2107.5903 2122.1559 2106.2898 2055.0501 2103.1686 2104.9893 2116.6938 2115.3933 2116.1736 2106.5499 2121.8958 2113.3125 2147.9058 
14:45:09.121326 2040 2040 2121.1155 2120.0751 2130.4791 2115.6534 2064.9339 2109.9312 2112.2721 2125.017 2119.2948 2116.4337 2119.2948 2134.3806 2123.7165 2146.0851 
14:45:09.129617 2041 2040 2115.6534 2122.6761 2125.017 2123.9766 2069.6157 2115.9135 2118.2544 2122.1559 2119.5549 2121.3756 2123.9766 2135.1609 2127.618 2136.4614 
14:45:09.137330 2043 2040 2117.7342 2132.0397 2121.8958 2139.3225 2091.7242 2132.2998 2132.0397 2129.4387 2127.618 2133.8604 2128.1382 2135.6811 2130.4791 2122.9362 
14:45:09.145308 2042 2041 2116.9539 2148.426 2121.1155 2152.8477 2110.1913 2142.9639 2143.224 2134.3806 2130.219 2129.9589 2135.421 2142.4437 2132.2998 2132.5599 
14:45:09.153308 2045 2042 2126.8377 2166.3729 2128.1382 2167.6734 2121.1155 2155.1886 2153.1078 2147.6457 2139.3225 2137.5018 2158.5699 2161.6911 2154.4083 2140.1028 
14:45:09.161394 2046 2042 2124.7569 2151.2871 2119.0347 2151.027 2105.2494 2139.3225 2136.4614 2140.3629 2129.1786 2135.421 2153.628 2156.4891 2153.628 2137.7619 
14:45:09.169334 2045 2042 2125.2771 2157.7896 2117.7342 2162.9916 2117.7342 2149.7265 2150.2467 2159.0901 2146.0851 2161.431 2161.9512 2165.5926 2164.8123 2123.9766 
14:45:09.177316 2046 2043 2120.0751 2157.2694 2118.2544 2164.2921 2112.7923 2151.5472 2157.0093 2165.3325 2158.83 2165.5926 2160.3906 2163.7719 2163.7719 2127.0978 
14:45:09.184319 2046 2043 2129.6988 2165.8527 2128.6584 2166.3729 2112.012 2152.3275 2157.0093 2167.1532 2161.9512 2164.032 2168.4537 2173.3956 2170.2744 2133.6003 
14:45:09.192418 2046 2042 2125.2771 2153.3679 2127.0978 2153.628 2099.007 2137.2417 2139.3225 2149.9866 2140.1028 2151.2871 2152.3275 2162.4714 2155.4487 2135.1609 
14:45:09.200328 2045 2043 2122.6761 2140.1028 2127.3579 2140.8831 2084.4414 2126.3175 2128.1382 2138.5422 2130.7392 2134.6407 2139.8427 2151.2871 2145.0447 2133.8604 
14:45:09.208315 2047 2042 2116.1736 2132.2998 2123.9766 2129.1786 2077.1586 2117.4741 2119.0347 2132.2998 2126.3175 2117.7342 2136.7215 2144.0043 2142.9639 2134.6407 
14:45:09.216417 2045 2042 2117.214 2125.5372 2123.7165 2121.1155 2072.7369 2115.6534 2119.5549 2127.0978 2123.9766 2121.1155 2123.7165 2138.8023 2132.82 2134.3806 
14:45:09.224423 2046 2040 2120.3352 2125.017 2121.8958 2123.7165 2070.1359 2116.9539 2117.9943 2130.4791 2129.6988 2140.8831 2122.416 2143.224 2130.4791 2136.2013 
14:45:09.232329 2047 2041 2120.0751 2117.214 2124.2367 2114.3529 2059.7319 2103.4287 2105.5095 2124.2367 2128.6584 2133.8604 2120.3352 2138.5422 2127.3579 2140.3629 
14:45:09.240313 2049 2042 2120.8554 2112.5322 2127.8781 2105.2494 2056.3506 2102.3883 2109.411 2120.3352 2126.8377 2118.2544 2111.7519 2132.82 2123.1963 2136.7215 
14:45:09.248386 2048 2041 2118.5145 2115.6534 2125.5372 2113.3125 2070.9162 2117.7342 2122.416 2124.4968 2128.9185 2119.815 2109.9312 2129.6988 2120.5953 2134.3806 
14:45:09.255421 2046 2043 2117.9943 2115.9135 2129.1786 2129.1786 2081.0601 2115.9135 2117.4741 2120.5953 2123.9766 2122.9362 2114.613 2126.3175 2117.214 2130.219 
14:45:09.263333 2047 2044 2118.5145 2123.4564 2135.421 2152.3275 2087.8227 2117.9943 2120.0751 2111.7519 2110.7115 2114.613 2124.7569 2132.82 2120.8554 2135.421 
14:45:09.271318 2048 2046 2127.8781 2142.9639 2152.0674 2171.835 2095.8858 2133.6003 2133.6003 2113.5726 2108.6307 2109.411 2148.9462 2158.83 2136.9816 2132.2998 
14:45:09.279396 2046 2045 2140.1028 2162.2113 2175.4764 2187.1809 2102.3883 2134.6407 2132.5599 2130.4791 2122.9362 2125.017 2184.0597 2195.244 2162.4714 2135.9412 
14:45:09.287414 2047 2043 2155.4487 2168.4537 2204.6076 2204.8677 2106.81 2133.6003 2135.9412 2157.0093 2145.3048 2153.3679 2204.3475 2219.4333 2185.1001 2137.7619 
14:45:09.295332 2048 2043 2151.5472 2156.229 2209.5495 2206.9485 2101.0878 2135.1609 2140.3629 2158.5699 2144.5245 2147.1255 2198.1051 2219.4333 2182.4991 2142.9639 
14:45:09.302330 2047 2041 2154.6684 2169.4941 2214.2313 2220.4737 2122.1559 2154.6684 2155.9689 2167.1532 2152.5876 2152.8477 2218.1328 2240.2413 2196.0243 2137.2417 
14:45:09.311446 2049 2042 2148.9462 2169.234 2215.5318 2217.3525 2120.5953 2147.9058 2151.2871 2155.7088 2148.426 2152.5876 2216.8323 2238.9408 2191.6026 2138.5422 
14:45:09.318410 2047 2040 2152.5876 2183.2794 2224.8954 2239.9812 2134.6407 2160.3906 2163.5118 2164.5522 2159.0901 2168.1936 2225.4156 2245.9635 2206.4283 2139.0624 
14:45:09.326332 2048 2038 2147.9058 2180.6784 2215.0116 2241.0216 2137.2417 2159.3502 2156.4891 2165.5926 2158.0497 2161.1709 2220.7338 2243.3625 2204.6076 2141.6634 
14:45:09.334331 2049 2038 2146.3452 2176.5168 2199.1455 2226.7161 2133.3402 2150.5068 2149.2063 2166.8931 2160.3906 2153.8881 2215.5318 2238.6807 2198.3652 2142.1836 
14:45:09.342456 2047 2034 2133.0801 2158.5699 2179.638 2199.1455 2115.1332 2130.219 2135.421 2146.6053 2141.1432 2135.9412 2194.2036 2209.0293 2176.2567 2141.4033 
14:45:09.350413 2048 2033 2128.6584 2145.3048 2171.3148 2183.7996 2107.3302 2128.1382 2133.3402 2129.6988 2125.017 2122.9362 2169.7542 2186.4006 2153.3679 2135.9412 
14:45:09.358335 2048 2033 2123.9766 2134.3806 2158.83 2168.9739 2102.9085 2128.9185 2131.5195 2132.82 2126.8377 2130.7392 2148.6861 2174.1759 2140.8831 2132.2998 
14:45:09.366356 2046 2033 2117.214 2125.5372 2148.1659 2150.5068 2096.6661 2119.0347 2127.3579 2124.2367 2126.0574 2130.9993 2134.1205 2152.3275 2125.5372 2131.7796 
14:45:09.375261 2044 2033 2113.8327 2133.8604 2143.224 2152.5876 2113.3125 2125.2771 2134.1205 2115.9135 2122.6761 2122.6761 2135.6811 2135.9412 2117.9943 2127.0978 
14:45:09.381388 2045 2034 2116.4337 2127.3579 2137.5018 2140.623 2113.0524 2122.416 2128.6584 2111.7519 2119.0347 2107.3302 2123.1963 2123.7165 2110.1913 2126.5776 
14:45:09.389330 2045 2034 2121.1155 2110.9716 2132.5599 2110.4514 2091.204 2100.0474 2108.6307 2107.0701 2117.7342 2097.9666 2109.9312 2119.815 2107.8504 2126.8377 
14:45:09.397336 2044 2033 2120.3352 2114.0928 2128.3983 2104.9893 2092.5045 2097.1863 2102.3883 2103.9489 2109.1509 2095.3656 2116.9539 2122.416 2113.5726 2129.4387 
14:45:09.406425 2045 2033 2122.416 2120.5953 2129.4387 2117.214 2106.5499 2113.8327 2116.6938 2108.8908 2102.9085 2099.5272 2119.2948 2123.7165 2117.9943 2127.0978 
14:45:09.413387 2046 2034 2127.8781 2118.2544 2125.017 2114.0928 2106.0297 2114.8731 2122.6761 2120.0751 2111.7519 2114.613 2120.3352 2131.5195 2129.1786 2133.8604 
14:45:09.421329 2048 2035 2134.9008 2127.3579 2122.9362 2115.6534 2112.5322 2113.0524 2120.0751 2131.2594 2129.4387 2130.219 2138.5422 2147.6457 2146.0851 2136.7215 
14:45:09.429348 2049 2036 2127.0978 2138.2821 2120.8554 2135.1609 2133.6003 2128.9185 2129.6988 2143.4841 2141.4033 2140.3629 2151.027 2154.4083 2154.9285 2138.8023 
14:45:09.437702 2048 2037 2124.4968 2141.6634 2126.0574 2150.7669 2149.9866 2147.1255 2146.8654 2157.2694 2150.2467 2152.3275 2152.8477 2157.2694 2161.6911 2133.8604 
14:45:09.445355 2049 2038 2121.6357 2132.0397 2123.4564 2136.7215 2140.8831 2135.9412 2137.2417 2146.8654 2140.623 2140.3629 2138.5422 2144.0043 2147.3856 2128.3983 
14:45:09.452324 2049 2039 2107.8504 2128.6584 2108.1105 2130.219 2139.8427 2128.1382 2126.8377 2135.6811 2129.6988 2130.7392 2130.219 2132.0397 2134.9008 2140.3629 
14:45:09.460318 2049 2039 2121.3756 2153.628 2120.0751 2159.0901 2172.0951 2159.3502 2159.0901 2158.83 2152.3275 2162.7315 2151.027 2152.5876 2155.1886 2125.7973 
14:45:09.468840 2050 2040 2110.7115 2126.0574 2111.7519 2126.8377 2137.2417 2129.9589 2136.2013 2136.7215 2132.2998 2142.1836 2118.7746 2125.5372 2125.017 2127.0978 
14:45:09.476362 2050 2041 2105.7696 2104.7292 2103.1686 2095.8858 2105.2494 2101.3479 2113.5726 2109.6711 2111.4918 2108.1105 2092.2444 2103.9489 2099.2671 2151.2871 
14:45:09.484328 2047 2039 2163.5118 2177.037 2157.2694 2170.2744 2183.7996 2175.4764 2186.1405 2177.8173 2176.5168 2179.3779 2170.7946 2179.8981 2178.5976 2090.6838 
14:45:09.492320 2047 2037 2149.2063 2159.6103 2151.027 2156.229 2168.9739 2160.6507 2165.5926 2162.9916 2159.6103 2167.9335 2156.4891 2167.4133 2165.5926 2086.7823 
14:45:09.500609 2042 2038 2106.81 2098.7469 2112.012 2090.6838 2101.0878 2094.8454 2097.9666 2097.1863 2101.0878 2098.2267 2085.7419 2104.4691 2092.5045 2139.3225 
14:45:09.508334 2042 2036 2101.8681 2098.4868 2100.5676 2088.3429 2103.6888 2092.5045 2097.7065 2087.5626 2096.9262 2092.2444 2082.1005 2099.007 2086.002 2147.6457 
14:45:09.516321 2037 2037 2131.7796 2135.6811 2125.5372 2125.7973 2147.6457 2132.82 2138.5422 2127.3579 2134.1205 2126.8377 2125.7973 2138.5422 2131.7796 2096.1459 
14:45:09.523330 2035 2038 2101.8681 2097.4464 2100.5676 2086.2621 2110.7115 2095.3656 2101.608 2093.5449 2099.007 2081.3202 2087.0424 2103.1686 2095.1055 2118.2544 
14:45:09.531603 2032 2041 2114.0928 2110.7115 2104.9893 2098.7469 2124.7569 2106.2898 2113.8327 2103.9489 2110.9716 2103.4287 2098.7469 2115.6534 2105.7696 2125.7973 
14:45:09.539346 2032 2041 2121.3756 2117.214 2111.4918 2105.7696 2127.0978 2110.7115 2119.5549 2114.613 2121.6357 2130.9993 2111.2317 2126.0574 2120.0751 2110.1913 
14:45:09.547328 2029 2046 2110.1913 2105.5095 2105.7696 2093.5449 2114.0928 2100.5676 2109.9312 2107.5903 2113.8327 2117.9943 2103.1686 2116.9539 2114.0928 2121.1155 
14:45:09.555349 2029 2045 2115.9135 2112.012 2110.9716 2100.0474 2131.2594 2109.411 2119.0347 2117.7342 2121.1155 2116.6938 2113.8327 2127.3579 2124.4968 2112.7923 
14:45:09.563461 2027 2046 2108.6307 2101.8681 2104.209 2091.204 2129.9589 2102.6484 2115.9135 2113.5726 2116.9539 2114.0928 2106.5499 2122.416 2116.4337 2116.4337 
14:45:09.571350 2028 2048 2110.4514 2105.7696 2109.6711 2096.406 2133.8604 2109.9312 2122.6761 2123.4564 2126.8377 2130.7392 2109.9312 2124.2367 2118.5145 2114.0928 
14:45:09.578322 2029 2046 2106.81 2104.4691 2107.3302 2095.1055 2129.9589 2107.8504 2117.7342 2120.5953 2124.2367 2120.0751 2104.7292 2116.9539 2113.3125 2114.3529 
14:45:09.586319 2029 2047 2107.8504 2106.5499 2105.2494 2096.1459 2129.4387 2108.8908 2120.0751 2124.2367 2125.2771 2108.6307 2104.7292 2118.7746 2117.214 2112.5322 
14:45:09.594401 2030 2046 2107.3302 2104.9893 2105.5095 2094.3252 2127.8781 2106.5499 2118.7746 2122.9362 2122.9362 2115.9135 2101.3479 2116.9539 2114.613 2113.0524 
14:45:09.602328 2032 2045 2115.9135 2115.6534 2115.3933 2106.0297 2142.9639 2114.613 2122.6761 2124.4968 2129.1786 2136.4614 2108.1105 2122.9362 2118.2544 2114.3529 
14:45:09.610322 2033 2045 2115.6534 2115.6534 2112.7923 2106.0297 2143.224 2113.8327 2119.0347 2121.1155 2128.3983 2125.7973 2106.2898 2120.5953 2115.3933 2113.5726 
14:45:09.618418 2035 2047 2112.7923 2113.5726 2107.5903 2102.3883 2136.7215 2111.2317 2119.0347 2119.0347 2123.4564 2111.7519 2102.1282 2115.6534 2111.7519 2108.8908 
14:45:09.626408 2035 2047 2109.9312 2110.7115 2104.7292 2098.2267 2134.1205 2107.8504 2116.9539 2113.5726 2117.4741 2114.613 2097.7065 2112.012 2107.5903 2108.6307 
14:45:09.634328 2035 2048 2118.5145 2116.9539 2110.9716 2104.7292 2140.3629 2112.2721 2119.815 2119.0347 2123.1963 2117.214 2106.0297 2119.5549 2113.8327 2114.3529 
14:45:09.642322 2036 2047 2119.815 2115.6534 2111.7519 2104.7292 2137.2417 2111.2317 2117.214 2118.7746 2122.1559 2109.1509 2107.3302 2117.9943 2112.7923 2114.3529 
14:45:09.649346 2034 2047 2112.012 2109.1509 2104.9893 2099.007 2133.6003 2107.0701 2112.7923 2112.2721 2116.1736 2107.3302 2098.4868 2111.4918 2107.3302 2109.1509 
14:45:09.657418 2036 2046 2105.7696 2102.1282 2099.7873 2092.2444 2128.9185 2100.8277 2107.8504 2108.6307 2114.0928 2105.5095 2090.4237 2107.3302 2102.1282 2105.7696 
14:45:09.665338 2036 2046 2105.2494 2101.0878 2101.0878 2092.2444 2130.219 2100.5676 2107.3302 2109.411 2115.6534 2108.1105 2089.9035 2104.9893 2096.9262 2105.5095 
14:45:09.681499 2038 2044 2093.805 2096.406 2091.7242 2084.9616 2128.1382 2098.7469 2105.7696 2101.3479 2107.8504 2103.1686 2080.0197 2095.1055 2089.3833 2098.4868 
14:45:09.689414 2041 2041 2096.6661 2096.406 2090.6838 2086.002 2129.6988 2097.4464 2104.4691 2104.4691 2110.4514 2093.5449 2081.0601 2096.6661 2093.0247 2099.5272 
14:45:09.697337 2040 2039 2097.7065 2096.1459 2090.6838 2087.0424 2133.6003 2097.7065 2102.6484 2102.1282 2110.4514 2095.6257 2080.2798 2093.2848 2089.1232 2101.8681 
14:45:09.705331 2043 2038 2098.2267 2098.7469 2092.2444 2088.603 2137.2417 2102.1282 2108.8908 2097.4464 2108.6307 2103.9489 2080.5399 2090.4237 2086.002 2096.406 
14:45:09.712523 2043 2038 2098.4868 2096.6661 2090.6838 2084.7015 2131.5195 2096.1459 2104.4691 2091.9843 2102.6484 2095.1055 2079.7596 2089.3833 2085.4818 2094.8454 
14:45:09.720417 2044 2037 2103.1686 2098.4868 2094.3252 2087.5626 2131.5195 2093.805 2097.7065 2096.1459 2102.6484 2095.8858 2086.7823 2097.4464 2094.3252 2095.1055 
14:45:09.728337 2047 2037 2098.4868 2093.5449 2093.0247 2084.4414 2127.3579 2088.8631 2094.3252 2091.204 2099.5272 2097.4464 2084.1813 2097.1863 2090.1636 2093.805 
14:45:09.736328 2048 2035 2097.9666 2093.0247 2094.3252 2086.002 2129.6988 2090.9439 2101.8681 2094.5853 2103.9489 2095.1055 2084.9616 2098.2267 2088.8631 2087.5626 
14:45:09.744429 2049 2035 2093.0247 2089.3833 2089.9035 2082.6207 2125.2771 2087.5626 2096.1459 2094.0651 2100.3075 2083.9212 2081.8404 2093.2848 2086.5222 2087.5626 
14:45:09.752417 2046 2034 2094.0651 2094.5853 2092.7646 2086.2621 2127.8781 2089.6434 2094.3252 2090.4237 2097.1863 2095.1055 2084.4414 2096.6661 2089.3833 2088.8631 
14:45:09.760350 2046 2034 2091.9843 2092.7646 2092.7646 2085.4818 2129.9589 2088.0828 2095.8858 2083.9212 2093.2848 2097.4464 2077.6788 2091.9843 2081.3202 2086.7823 
14:45:09.768335 2046 2033 2092.7646 2090.4237 2090.1636 2084.7015 2132.0397 2090.4237 2098.2267 2090.9439 2097.9666 2081.0601 2075.3379 2088.8631 2080.2798 2082.8808 
14:45:09.775440 2046 2032 2087.0424 2083.1409 2081.5803 2075.8581 2125.7973 2084.1813 2088.0828 2085.2217 2091.9843 2072.2167 2069.0955 2080.8 2076.1182 2081.5803 
14:45:09.783407 2044 2032 2086.7823 2085.2217 2083.9212 2077.6788 2130.9993 2084.4414 2088.3429 2077.6788 2088.603 2088.8631 2069.3556 2079.4995 2075.598 2084.7015 
14:45:09.791335 2042 2032 2092.7646 2090.9439 2091.9843 2085.4818 2137.7619 2089.9035 2093.0247 2081.8404 2095.3656 2093.5449 2076.1182 2085.7419 2082.1005 2089.3833 
14:45:09.799337 2041 2031 2099.2671 2095.1055 2097.1863 2091.204 2141.1432 2094.0651 2095.1055 2090.4237 2104.7292 2088.0828 2083.401 2094.5853 2089.9035 2091.204 
14:45:09.808278 2040 2032 2095.6257 2091.4641 2094.8454 2087.5626 2139.0624 2088.8631 2091.204 2088.8631 2101.0878 2093.5449 2081.0601 2094.0651 2086.5222 2087.0424 
14:45:09.815398 2041 2033 2087.3025 2086.5222 2088.8631 2084.1813 2138.022 2087.3025 2091.204 2085.4818 2094.0651 2099.2671 2072.997 2085.7419 2077.1586 2084.9616 
14:45:09.823340 2039 2034 2084.9616 2086.002 2087.5626 2086.002 2138.8023 2091.204 2095.1055 2089.9035 2098.7469 2094.0651 2071.9566 2081.0601 2075.8581 2083.6611 
14:45:09.831328 2039 2034 2088.3429 2087.5626 2089.1232 2085.2217 2137.2417 2090.4237 2095.8858 2091.4641 2100.3075 2086.2621 2073.7773 2078.9793 2077.6788 2086.7823 
14:45:09.839742 2037 2034 2091.4641 2090.1636 2087.3025 2083.9212 2140.1028 2090.4237 2096.6661 2096.9262 2099.2671 2086.002 2075.598 2078.7192 2080.5399 2087.3025 
14:45:09.846387 2037 2035 2087.3025 2083.9212 2081.8404 2078.4591 2140.623 2086.5222 2093.805 2098.2267 2099.2671 2086.2621 2072.997 2076.3783 2078.4591 2089.1232 
14:45:09.854327 2036 2035 2091.7242 2088.3429 2090.6838 2084.1813 2145.825 2089.6434 2097.7065 2097.1863 2104.7292 2100.0474 2082.8808 2086.2621 2085.2217 2090.9439 
14:45:09.862323 2036 2036 2094.3252 2088.8631 2091.7242 2081.8404 2139.5826 2088.603 2096.9262 2093.5449 2100.3075 2100.5676 2082.8808 2089.9035 2087.3025 2095.8858 
14:45:09.870708 2036 2036 2096.6661 2088.0828 2088.0828 2078.9793 2134.1205 2087.5626 2095.3656 2102.9085 2102.9085 2091.9843 2080.5399 2091.204 2090.6838 2094.5853 
14:45:09.878355 2037 2036 2093.5449 2085.4818 2086.7823 2076.8985 2129.6988 2080.5399 2086.002 2093.5449 2099.5272 2084.9616 2078.9793 2088.603 2087.3025 2094.5853 
14:45:09.886328 2037 2036 2095.1055 2090.4237 2092.7646 2085.4818 2139.3225 2085.2217 2087.8227 2084.1813 2099.7873 2099.007 2084.7015 2092.2444 2090.4237 2094.8454 
14:45:09.894324 2037 2038 2089.3833 2085.4818 2088.8631 2083.6611 2141.1432 2085.4818 2089.1232 2083.6611 2096.9262 2093.805 2078.199 2085.2217 2087.5626 2094.5853 
14:45:09.902631 2038 2037 2091.4641 2089.9035 2090.9439 2085.4818 2144.0043 2088.603 2094.3252 2091.4641 2100.8277 2082.1005 2081.0601 2087.3025 2090.9439 2092.7646 
14:45:09.909331 2042 2040 2092.7646 2091.7242 2092.2444 2084.9616 2142.9639 2087.3025 2095.1055 2089.9035 2099.7873 2090.6838 2082.3606 2087.5626 2087.8227 2093.0247 
14:45:09.917324 2042 2038 2091.4641 2090.6838 2091.9843 2087.3025 2144.5245 2090.4237 2099.7873 2089.3833 2098.4868 2105.7696 2078.9793 2084.7015 2081.3202 2090.6838 
14:45:09.925322 2044 2038 2082.3606 2084.1813 2085.7419 2079.7596 2139.0624 2084.4414 2093.5449 2083.1409 2089.6434 2091.204 2069.8758 2076.1182 2071.6965 2088.3429 
14:45:09.933626 2046 2036 2081.5803 2085.4818 2085.7419 2075.8581 2139.3225 2080.8 2087.3025 2084.4414 2090.1636 2075.3379 2071.9566 2078.7192 2074.8177 2091.204 
14:45:09.941332 2048 2032 2084.4414 2087.0424 2088.0828 2078.9793 2142.7038 2081.8404 2087.3025 2087.0424 2095.1055 2077.1586 2075.0778 2083.1409 2078.9793 2090.6838 
14:45:09.949305 2050 2031 2083.6611 2086.002 2087.5626 2083.1409 2144.7846 2084.4414 2090.4237 2084.1813 2093.2848 2082.8808 2074.0374 2082.8808 2075.8581 2089.3833 
14:45:09.957299 2052 2032 2079.7596 2083.9212 2083.6611 2080.5399 2142.7038 2081.8404 2087.8227 2084.7015 2092.5045 2079.2394 2070.9162 2079.4995 2073.5172 2089.1232 
14:45:09.965395 2050 2034 2080.8 2086.2621 2084.1813 2080.2798 2143.7442 2079.7596 2085.7419 2089.6434 2099.2671 2078.4591 2072.997 2081.5803 2077.4187 2092.7646 
14:45:09.972329 2050 2034 2083.6611 2090.1636 2089.3833 2086.002 2147.9058 2082.8808 2089.3833 2090.6838 2102.3883 2089.3833 2079.4995 2086.2621 2080.8 2089.6434 
14:45:09.980325 2049 2036 2076.3783 2080.5399 2083.401 2077.9389 2140.8831 2078.199 2088.3429 2087.3025 2094.0651 2093.805 2073.7773 2078.7192 2073.2571 2088.603 
14:45:09.988309 2047 2036 2075.598 2075.8581 2078.7192 2072.7369 2139.5826 2077.4187 2088.8631 2095.6257 2096.1459 2091.9843 2073.7773 2079.4995 2076.8985 2090.1636 
14:45:09.996397 2044 2039 2080.5399 2080.8 2084.9616 2079.2394 2145.0447 2081.5803 2093.5449 2096.6661 2102.6484 2091.4641 2079.7596 2086.2621 2084.1813 2095.6257 
14:45:10.004321 2044 2040 2087.0424 2091.4641 2095.3656 2092.2444 2151.027 2091.204 2102.6484 2098.4868 2109.1509 2103.9489 2088.8631 2093.805 2091.4641 2095.8858 
14:45:10.012325 2041 2042 2083.6611 2087.5626 2091.204 2088.603 2147.1255 2085.7419 2095.6257 2095.3656 2101.0878 2092.2444 2083.6611 2087.5626 2087.5626 2095.8858 
14:45:10.020314 2038 2042 2086.002 2088.8631 2092.2444 2088.0828 2156.229 2084.1813 2092.5045 2099.007 2100.8277 2084.9616 2085.2217 2089.1232 2089.1232 2094.8454 
14:45:10.028398 2035 2043 2082.6207 2087.5626 2092.5045 2085.2217 2156.229 2082.1005 2090.6838 2095.6257 2102.9085 2095.3656 2083.401 2087.0424 2083.6611 2095.6257 
14:45:10.036325 2034 2043 2083.6611 2089.9035 2095.3656 2088.3429 2155.4487 2087.0424 2094.5853 2097.7065 2107.0701 2110.4514 2084.1813 2089.1232 2084.1813 2093.0247 
14:45:10.043337 2033 2041 2087.5626 2090.1636 2095.8858 2087.3025 2155.1886 2084.1813 2090.9439 2098.4868 2104.7292 2102.1282 2084.9616 2093.2848 2086.7823 2093.805 
14:45:10.051311 2030 2042 2098.2267 2098.4868 2102.9085 2095.8858 2162.9916 2087.5626 2094.3252 2099.7873 2106.81 2098.2267 2096.406 2102.3883 2095.6257 2097.4464 
14:45:10.059408 2031 2042 2094.3252 2094.5853 2101.3479 2096.9262 2160.1305 2087.5626 2094.3252 2092.7646 2102.3883 2098.7469 2094.5853 2096.9262 2091.9843 2097.4464 
14:45:10.067326 2029 2042 2088.3429 2089.3833 2096.9262 2091.7242 2155.7088 2086.2621 2093.805 2095.8858 2102.6484 2095.8858 2091.9843 2095.6257 2092.2444 2095.3656 
14:45:10.075329 2030 2041 2088.3429 2088.3429 2093.0247 2084.7015 2151.027 2082.6207 2092.5045 2099.2671 2103.4287 2089.3833 2092.7646 2097.4464 2093.805 2095.8858 
14:45:10.083437 2031 2040 2091.9843 2091.4641 2093.5449 2088.3429 2157.0093 2087.0424 2096.6661 2096.6661 2104.9893 2094.8454 2093.2848 2097.4464 2092.5045 2099.007 
14:45:10.091402 2031 2039 2088.3429 2089.9035 2093.2848 2090.1636 2160.9108 2087.8227 2096.1459 2092.5045 2104.7292 2102.3883 2089.1232 2095.3656 2089.3833 2098.7469 
14:45:10.099325 2030 2038 2089.1232 2091.9843 2095.6257 2091.204 2157.2694 2088.603 2097.1863 2099.7873 2108.8908 2107.0701 2093.2848 2098.7469 2093.5449 2099.5272 
14:45:10.107339 2028 2038 2095.6257 2098.7469 2102.3883 2099.007 2158.5699 2095.3656 2102.3883 2108.3706 2113.5726 2110.7115 2101.0878 2104.7292 2099.7873 2099.2671 
14:45:10.114389 2033 2034 2095.6257 2098.2267 2102.9085 2100.0474 2162.4714 2095.6257 2102.6484 2103.6888 2110.7115 2107.0701 2096.406 2102.9085 2096.6661 2101.608 
14:45:10.122391 2036 2035 2091.204 2093.5449 2096.9262 2094.3252 2160.9108 2089.3833 2097.4464 2101.608 2108.1105 2100.8277 2093.2848 2099.5272 2094.5853 2099.007 
14:45:10.130320 2038 2032 2087.8227 2091.7242 2094.3252 2094.0651 2156.7492 2088.0828 2096.6661 2102.3883 2108.6307 2097.9666 2094.8454 2096.9262 2093.2848 2099.007 
14:45:10.138321 2040 2030 2092.5045 2100.3075 2102.3883 2106.5499 2165.5926 2100.0474 2107.8504 2106.5499 2115.3933 2107.5903 2099.2671 2102.3883 2097.4464 2100.5676 
14:45:10.146417 2040 2032 2091.204 2098.4868 2100.5676 2104.4691 2164.032 2098.2267 2104.9893 2100.3075 2109.6711 2102.1282 2092.5045 2098.2267 2091.204 2102.9085 
14:45:10.154398 2047 2033 2093.0247 2096.9262 2097.4464 2100.8277 2163.7719 2097.1863 2101.608 2101.608 2108.3706 2099.5272 2092.7646 2096.6661 2089.9035 2098.7469 
14:45:10.162327 2048 2034 2096.6661 2096.9262 2097.4464 2099.007 2164.2921 2098.2267 2100.3075 2102.9085 2109.9312 2104.9893 2093.0247 2099.7873 2092.7646 2102.9085 
14:45:10.170305 2052 2035 2108.3706 2106.2898 2105.2494 2105.2494 2167.4133 2102.9085 2104.209 2104.4691 2111.2317 2110.4514 2099.007 2112.2721 2101.8681 2108.6307 
14:45:10.177416 2052 2036 2106.2898 2103.6888 2103.1686 2102.1282 2158.0497 2097.7065 2100.0474 2098.7469 2101.8681 2097.9666 2095.1055 2108.6307 2096.1459 2107.5903 
14:45:10.185404 2056 2035 2104.9893 2103.1686 2104.9893 2103.9489 2161.9512 2101.8681 2105.7696 2103.6888 2106.2898 2099.007 2096.6661 2105.5095 2097.4464 2105.7696 
14:45:10.193333 2056 2036 2104.9893 2103.4287 2106.5499 2104.7292 2163.2517 2105.2494 2109.411 2106.0297 2110.1913 2105.7696 2095.8858 2102.3883 2099.2671 2110.1913 
14:45:10.201309 2056 2038 2110.7115 2109.1509 2110.1913 2112.012 2158.83 2109.9312 2113.3125 2112.2721 2113.3125 2105.5095 2101.0878 2109.411 2103.4287 2111.2317 
14:45:10.210208 2056 2040 2109.411 2105.5095 2109.411 2109.411 2152.5876 2106.0297 2110.9716 2111.2317 2109.9312 2093.805 2101.0878 2112.012 2101.3479 2108.1105 
14:45:10.217383 2056 2038 2108.6307 2104.209 2114.0928 2109.411 2157.7896 2104.209 2114.613 2112.5322 2112.2721 2103.6888 2103.9489 2115.9135 2102.9085 2109.9312 
14:45:10.225329 2056 2039 2110.9716 2108.1105 2122.416 2121.1155 2156.4891 2102.9085 2115.3933 2115.6534 2113.5726 2116.1736 2112.5322 2122.9362 2107.0701 2113.0524 
14:45:10.233306 2051 2042 2121.1155 2119.5549 2138.022 2146.3452 2157.7896 2108.6307 2116.9539 2113.5726 2113.0524 2110.4514 2128.1382 2137.2417 2116.4337 2114.613 
14:45:10.241110 2052 2042 2127.8781 2127.3579 2158.3098 2165.8527 2162.9916 2112.5322 2118.7746 2109.1509 2113.3125 2106.0297 2145.3048 2154.9285 2125.5372 2115.1332 
14:45:10.248383 2051 2042 2133.8604 2134.3806 2181.1986 2180.6784 2165.0724 2112.5322 2117.4741 2111.2317 2114.3529 2107.3302 2166.633 2178.0774 2136.7215 2119.2948 
14:45:10.256326 2048 2043 2140.623 2140.8831 2196.0243 2196.0243 2164.032 2114.3529 2113.8327 2114.8731 2114.8731 2103.4287 2182.4991 2197.0647 2149.2063 2118.7746 
14:45:10.264304 2048 2044 2139.3225 2140.623 2197.3248 2200.446 2159.8704 2111.7519 2112.7923 2110.4514 2112.7923 2105.7696 2181.4587 2198.8854 2149.4664 2120.8554 
14:45:10.272733 2047 2046 2138.2821 2140.3629 2201.7465 2202.0066 2161.6911 2111.2317 2119.0347 2116.1736 2118.5145 2124.4968 2185.8804 2201.4864 2150.2467 2122.416 
14:45:10.280359 2046 2046 2138.2821 2136.2013 2204.8677 2199.6657 2160.9108 2110.4514 2115.9135 2124.2367 2121.8958 2121.8958 2192.1228 2205.3879 2154.4083 2124.2367 
14:45:10.288321 2044 2046 2141.1432 2140.3629 2205.9081 2199.6657 2158.3098 2112.7923 2113.0524 2127.3579 2123.9766 2114.3529 2193.1632 2209.2894 2161.431 2122.6761 
14:45:10.296308 2043 2047 2137.2417 2139.5826 2196.5445 2190.3021 2154.1482 2108.6307 2112.2721 2120.0751 2121.1155 2115.3933 2180.9385 2199.6657 2154.1482 2125.017 
14:45:10.303825 2041 2050 2141.1432 2141.1432 2189.0016 2185.6203 2168.4537 2115.1332 2121.1155 2128.6584 2127.0978 2120.0751 2176.7769 2191.8627 2152.5876 2123.7165 
14:45:10.311361 2040 2051 2138.5422 2135.1609 2175.4764 2171.5749 2168.9739 2116.6938 2119.5549 2133.0801 2127.3579 2114.0928 2163.7719 2175.9966 2146.3452 2121.8958 
14:45:10.319329 2038 2051 2134.9008 2132.0397 2162.7315 2157.5295 2162.4714 2114.8731 2118.5145 2129.6988 2127.8781 2125.2771 2152.5876 2165.5926 2142.1836 2120.5953 
14:45:10.327339 2039 2052 2127.8781 2123.9766 2149.2063 2145.0447 2162.2113 2110.4514 2118.5145 2119.815 2121.8958 2126.0574 2139.8427 2150.7669 2130.4791 2120.8554 
14:45:10.335406 2038 2052 2129.6988 2126.5776 2146.8654 2146.6053 2171.5749 2119.5549 2125.7973 2125.2771 2124.4968 2119.2948 2137.5018 2141.9235 2127.8781 2117.9943 
14:45:10.343335 2037 2052 2125.017 2124.7569 2140.1028 2138.5422 2166.3729 2119.0347 2120.5953 2122.9362 2122.6761 2115.3933 2129.9589 2126.3175 2123.7165 2115.6534 
14:45:10.351321 2037 2053 2119.0347 2120.5953 2132.82 2134.1205 2171.0547 2118.5145 2120.8554 2116.1736 2121.6357 2125.7973 2123.1963 2111.7519 2117.4741 2113.0524 
14:45:10.359332 2036 2051 2114.613 2116.4337 2127.618 2132.0397 2177.2971 2117.4741 2117.9943 2110.4514 2120.0751 2121.6357 2117.7342 2104.9893 2110.9716 2112.5322 
14:45:10.367447 2038 2050 2119.5549 2122.416 2128.3983 2130.7392 2175.9966 2116.9539 2112.5322 2112.7923 2121.8958 2109.411 2122.9362 2112.012 2117.214 2113.8327 
14:45:10.374327 2041 2049 2117.214 2121.1155 2123.7165 2124.7569 2171.0547 2113.3125 2110.1913 2113.0524 2119.2948 2111.2317 2122.1559 2108.1105 2117.4741 2112.5322 
14:45:10.382316 2040 2048 2110.4514 2114.8731 2117.4741 2119.815 2170.5345 2113.5726 2114.613 2112.5322 2118.5145 2126.0574 2116.6938 2100.0474 2112.2721 2113.3125 
14:45:10.390315 2042 2046 2110.9716 2113.8327 2116.1736 2116.4337 2169.4941 2114.0928 2113.3125 2111.4918 2120.3352 2125.5372 2117.214 2102.3883 2113.0524 2113.0524 
14:45:10.398428 2045 2045 2114.3529 2114.0928 2114.8731 2113.8327 2168.4537 2110.9716 2108.6307 2111.2317 2119.2948 2113.5726 2118.7746 2103.6888 2113.3125 2115.1332 
14:45:10.406329 2044 2044 2112.5322 2111.2317 2111.2317 2110.1913 2168.1936 2108.8908 2111.4918 2117.214 2118.7746 2120.3352 2115.9135 2097.7065 2112.2721 2114.0928 
14:45:10.414315 2045 2043 2107.3302 2105.7696 2107.3302 2103.6888 2164.2921 2108.8908 2116.9539 2121.1155 2119.5549 2129.1786 2108.1105 2089.6434 2107.3302 2114.3529 
14:45:10.422338 2048 2042 2110.9716 2109.6711 2110.9716 2108.8908 2170.7946 2115.1332 2124.4968 2124.4968 2125.017 2119.2948 2109.6711 2092.2444 2106.5499 2112.2721 
14:45:10.430404 2048 2042 2108.3706 2106.5499 2108.3706 2106.81 2168.1936 2110.7115 2120.5953 2113.0524 2117.4741 2102.3883 2103.4287 2086.2621 2108.3706 2113.0524 
14:45:10.437326 2049 2042 2103.4287 2103.9489 2103.4287 2101.3479 2161.6911 2108.3706 2116.6938 2106.0297 2111.2317 2112.7923 2097.4464 2078.9793 2125.7973 2109.9312 
14:45:10.445319 2051 2041 2103.9489 2104.9893 2101.8681 2100.8277 2164.2921 2111.7519 2115.1332 2107.8504 2110.9716 2114.8731 2095.6257 2076.6384 2140.623 2111.7519 
14:45:10.453328 2050 2043 2113.8327 2113.3125 2109.9312 2110.9716 2178.8577 2121.3756 2120.5953 2118.2544 2120.5953 2111.7519 2104.7292 2087.8227 2155.7088 2113.8327 
14:45:10.461403 2050 2042 2111.4918 2108.8908 2108.3706 2105.7696 2171.835 2117.4741 2116.6938 2110.9716 2115.9135 2114.0928 2102.6484 2086.7823 2158.83 2115.1332 
14:45:10.469329 2049 2042 2113.3125 2111.7519 2110.1913 2108.1105 2171.835 2122.9362 2120.8554 2112.2721 2116.4337 2126.0574 2106.81 2088.603 2167.6734 2115.9135 
14:45:10.477323 2046 2043 2116.1736 2113.5726 2110.7115 2108.8908 2176.7769 2124.7569 2121.1155 2118.5145 2118.5145 2122.9362 2109.1509 2089.1232 2174.9562 2119.2948 
14:45:10.485380 2045 2044 2124.7569 2119.815 2115.1332 2112.2721 2180.1582 2126.0574 2121.6357 2120.8554 2120.3352 2122.6761 2115.9135 2094.0651 2183.5395 2118.7746 
14:45:10.493408 2044 2044 2125.5372 2120.5953 2116.6938 2110.7115 2174.9562 2124.2367 2120.0751 2116.4337 2118.7746 2126.8377 2117.7342 2095.3656 2184.3198 2117.9943 
14:45:10.501334 2043 2045 2125.017 2123.4564 2121.1155 2115.1332 2180.1582 2127.618 2128.3983 2127.618 2127.618 2129.4387 2121.8958 2101.8681 2192.9031 2121.6357 
14:45:10.508328 2043 2044 2120.8554 2120.3352 2118.2544 2115.1332 2181.4587 2125.5372 2130.4791 2131.2594 2127.8781 2121.8958 2119.5549 2101.3479 2196.2844 2122.6761 
14:45:10.516390 2043 2044 2122.9362 2119.2948 2116.4337 2113.0524 2178.0774 2122.6761 2126.3175 2123.7165 2122.9362 2119.2948 2119.2948 2100.0474 2197.0647 2121.8958 
14:45:10.524405 2041 2044 2125.7973 2118.7746 2119.815 2110.7115 2174.436 2119.5549 2123.4564 2123.4564 2126.3175 2123.9766 2121.8958 2101.8681 2200.7061 2122.1559 
14:45:10.532333 2042 2043 2123.7165 2118.7746 2121.3756 2115.6534 2179.1178 2122.6761 2131.7796 2131.7796 2134.9008 2134.1205 2119.815 2103.6888 2202.0066 2123.9766 
14:45:10.540325 2042 2044 2121.6357 2121.1155 2118.5145 2122.416 2185.6203 2129.1786 2137.2417 2135.6811 2137.5018 2140.623 2117.7342 2103.9489 2202.5268 2121.1155 
14:45:10.548478 2042 2043 2124.4968 2123.9766 2119.815 2124.7569 2187.441 2129.9589 2133.8604 2134.3806 2135.1609 2140.8831 2123.1963 2104.4691 2206.6884 2122.1559 
14:45:10.556488 2042 2042 2128.6584 2127.0978 2126.3175 2127.618 2189.2617 2130.219 2134.9008 2134.6407 2134.9008 2141.4033 2129.4387 2107.8504 2213.1909 2122.6761 
14:45:10.564333 2045 2043 2124.4968 2124.4968 2124.7569 2125.7973 2186.1405 2129.1786 2134.1205 2127.618 2130.219 2132.0397 2123.1963 2104.7292 2208.249 2122.6761 
14:45:10.571365 2044 2042 2125.7973 2126.5776 2125.017 2129.4387 2187.9612 2132.5599 2135.9412 2132.2998 2133.0801 2127.0978 2124.2367 2104.9893 2209.8096 2120.5953 
14:45:10.579488 2046 2042 2126.5776 2125.7973 2124.4968 2127.3579 2185.3602 2128.6584 2130.9993 2134.1205 2132.5599 2123.9766 2125.017 2104.209 2211.8904 2123.7165 
14:45:10.587428 2045 2042 2127.8781 2127.8781 2125.017 2128.3983 2188.2213 2129.1786 2128.6584 2130.7392 2133.0801 2136.2013 2126.0574 2105.5095 2214.7515 2123.4564 
14:45:10.595348 2045 2040 2123.7165 2124.2367 2120.3352 2126.0574 2186.9208 2127.618 2126.3175 2125.2771 2131.2594 2136.9816 2123.4564 2101.3479 2213.1909 2124.7569 
14:45:10.603328 2044 2042 2126.5776 2130.7392 2122.6761 2130.4791 2190.042 2130.9993 2132.0397 2131.2594 2133.8604 2135.9412 2131.5195 2106.0297 2219.6934 2122.9362 
14:45:10.612370 2044 2042 2123.1963 2129.4387 2118.7746 2124.7569 2183.0193 2126.5776 2126.5776 2126.8377 2128.3983 2129.4387 2125.017 2102.6484 2213.7111 2122.416 
14:45:10.619397 2044 2042 2123.7165 2127.0978 2117.4741 2125.017 2182.7592 2128.3983 2126.8377 2126.5776 2129.1786 2123.4564 2121.3756 2103.4287 2213.9712 2122.9362 
14:45:10.627336 2044 2040 2119.815 2121.1155 2114.8731 2123.9766 2184.5799 2127.618 2128.3983 2123.4564 2126.0574 2120.8554 2117.4741 2098.7469 2213.1909 2118.7746 
14:45:10.634328 2043 2039 2119.5549 2124.2367 2115.9135 2124.7569 2189.7819 2130.7392 2133.6003 2127.618 2132.2998 2135.6811 2119.0347 2098.4868 2216.5722 2112.5322 
14:45:10.643397 2043 2040 2119.2948 2123.9766 2115.3933 2121.1155 2186.1405 2129.9589 2133.0801 2132.82 2138.2821 2141.1432 2119.0347 2099.7873 2217.6126 2114.613 
14:45:10.650372 2043 2040 2123.9766 2125.7973 2119.5549 2124.4968 2187.441 2133.8604 2134.9008 2134.3806 2138.5422 2136.4614 2124.2367 2104.209 2221.5141 2119.2948 
14:45:10.658337 2042 2039 2124.2367 2126.0574 2120.0751 2124.2367 2188.4814 2133.0801 2128.9185 2125.5372 2129.9589 2133.8604 2123.4564 2102.1282 2220.4737 2118.5145 
14:45:10.666322 2043 2039 2125.017 2126.3175 2118.5145 2124.2367 2192.643 2132.2998 2129.1786 2123.7165 2129.6988 2137.2417 2119.5549 2101.0878 2217.6126 2119.815 
14:45:10.674742 2043 2040 2127.8781 2127.618 2119.5549 2125.2771 2194.2036 2135.421 2133.8604 2127.618 2133.3402 2127.8781 2118.5145 2101.8681 2216.5722 2120.5953 
14:45:10.682345 2044 2039 2132.0397 2132.0397 2124.7569 2128.3983 2193.6834 2139.3225 2134.6407 2128.6584 2134.6407 2122.416 2121.1155 2104.209 2219.1732 2121.8958 
14:45:10.698310 2046 2038 2130.7392 2134.1205 2126.0574 2130.9993 2194.4637 2136.9816 2134.3806 2127.3579 2134.6407 2146.3452 2127.3579 2112.5322 2226.1959 2123.4564 
14:45:10.705781 2045 2039 2132.82 2138.5422 2130.4791 2135.1609 2196.2844 2139.8427 2138.8023 2128.3983 2133.6003 2136.4614 2131.5195 2115.3933 2229.3171 2122.416 
14:45:10.713347 2044 2040 2128.6584 2135.1609 2127.3579 2130.219 2189.0016 2136.2013 2135.6811 2125.7973 2128.6584 2126.0574 2123.7165 2109.1509 2222.8146 2121.1155 
14:45:10.721319 2044 2041 2128.6584 2134.1205 2123.9766 2128.6584 2188.2213 2135.9412 2134.6407 2127.618 2131.5195 2135.6811 2121.6357 2109.9312 2222.2944 2119.2948 
14:45:10.729307 2046 2042 2129.4387 2132.2998 2123.7165 2127.618 2188.7415 2133.8604 2130.9993 2128.1382 2134.9008 2137.2417 2124.7569 2113.5726 2226.1959 2124.7569 
14:45:10.737643 2045 2044 2134.6407 2136.2013 2131.5195 2133.0801 2192.9031 2135.1609 2132.5599 2136.4614 2142.4437 2132.0397 2134.9008 2125.7973 2237.1201 2127.618 
14:45:10.745273 2045 2044 2131.7796 2133.3402 2130.7392 2130.4791 2189.0016 2130.4791 2130.4791 2135.421 2140.623 2125.5372 2132.5599 2125.7973 2235.2994 2127.8781 
14:45:10.753254 2044 2048 2133.8604 2136.9816 2132.2998 2133.3402 2192.3829 2134.6407 2137.2417 2139.3225 2145.0447 2140.8831 2134.6407 2126.8377 2236.5999 2126.3175 
14:45:10.760273 2044 2047 2131.2594 2131.2594 2129.6988 2128.9185 2187.7011 2130.7392 2134.1205 2133.3402 2139.8427 2143.7442 2129.4387 2120.3352 2229.5772 2126.0574 
14:45:10.768508 2044 2047 2128.3983 2126.8377 2127.0978 2126.8377 2186.1405 2128.9185 2132.82 2130.4791 2135.421 2133.6003 2122.416 2114.0928 2222.5545 2126.5776 
14:45:10.776281 2044 2048 2139.5826 2140.1028 2135.421 2140.623 2203.5672 2144.2644 2147.9058 2147.1255 2149.2063 2141.1432 2133.3402 2125.5372 2233.4787 2118.7746 
14:45:10.784252 2042 2044 2135.9412 2133.6003 2131.7796 2131.7796 2193.1632 2135.9412 2136.2013 2136.2013 2139.0624 2134.9008 2125.5372 2120.5953 2224.1151 2127.618 
14:45:10.792247 2041 2045 2129.9589 2125.017 2124.4968 2120.5953 2177.5572 2123.4564 2121.1155 2116.4337 2123.1963 2121.8958 2113.5726 2113.0524 2212.9308 2147.1255 
14:45:10.800398 2040 2044 2162.2113 2164.8123 2151.2871 2160.1305 2219.6934 2162.9916 2159.6103 2158.5699 2160.9108 2160.3906 2157.2694 2152.0674 2256.3675 2119.815 
14:45:10.808324 2040 2043 2155.9689 2159.3502 2149.7265 2154.6684 2217.8727 2162.4714 2158.5699 2164.2921 2161.1709 2162.4714 2156.229 2148.9462 2254.8069 2106.81 
14:45:10.816303 2040 2044 2128.3983 2127.8781 2127.8781 2120.5953 2183.7996 2131.2594 2129.1786 2133.6003 2131.2594 2136.7215 2122.1559 2120.8554 2220.7338 2130.4791 
14:45:10.823306 2039 2043 2128.6584 2128.3983 2126.8377 2118.7746 2182.4991 2127.3579 2126.8377 2128.1382 2129.9589 2133.3402 2120.8554 2122.6761 2220.2136 2140.3629 
14:45:10.831387 2038 2042 2147.6457 2148.6861 2142.7038 2141.9235 2204.0874 2148.9462 2148.9462 2148.1659 2151.2871 2148.9462 2145.5649 2144.0043 2244.4029 2121.6357 
14:45:10.839327 2039 2042 2131.2594 2128.3983 2129.1786 2125.5372 2182.7592 2132.0397 2134.6407 2128.3983 2132.5599 2130.219 2126.3175 2123.7165 2224.8954 2128.1382 
14:45:10.847335 2040 2042 2130.219 2129.1786 2126.5776 2125.5372 2185.1001 2132.5599 2135.6811 2126.3175 2132.0397 2130.4791 2125.7973 2122.6761 2222.8146 2133.6003 
14:45:10.855296 2039 2040 2136.9816 2137.7619 2132.0397 2131.7796 2196.0243 2138.5422 2138.2821 2134.3806 2140.623 2135.9412 2136.2013 2133.0801 2232.1782 2126.5776 
14:45:10.863396 2041 2040 2133.8604 2133.6003 2130.9993 2128.9185 2190.8223 2134.9008 2135.6811 2133.6003 2139.3225 2132.0397 2132.2998 2131.2594 2229.057 2132.82 
14:45:10.871322 2042 2040 2138.2821 2138.022 2136.2013 2135.421 2193.6834 2141.6634 2147.6457 2145.825 2146.6053 2142.9639 2139.5826 2138.2821 2235.2994 2132.5599 
14:45:10.879325 2042 2041 2134.1205 2130.7392 2132.5599 2128.9185 2187.1809 2137.2417 2143.7442 2139.8427 2140.8831 2144.0043 2135.9412 2134.1205 2230.0974 2132.2998 
14:45:10.887391 2044 2041 2134.1205 2131.5195 2133.3402 2129.4387 2189.2617 2139.3225 2140.8831 2136.7215 2143.4841 2146.8654 2139.3225 2136.2013 2233.7388 2130.4791 
14:45:10.894390 2043 2042 2132.5599 2131.2594 2132.2998 2125.7973 2188.2213 2136.7215 2137.7619 2133.6003 2141.1432 2136.7215 2137.7619 2135.421 2231.3979 2132.0397 
14:45:10.902318 2042 2041 2137.5018 2134.9008 2135.1609 2128.3983 2189.2617 2139.8427 2142.7038 2137.5018 2140.8831 2134.6407 2137.5018 2136.7215 2230.6176 2130.9993 
14:45:10.910318 2042 2041 2137.2417 2132.82 2133.6003 2128.9185 2185.8804 2139.3225 2140.3629 2137.7619 2139.8427 2136.2013 2136.4614 2135.1609 2231.658 2130.9993 
14:45:10.918385 2043 2039 2141.1432 2136.7215 2136.4614 2132.5599 2194.7238 2141.9235 2140.623 2144.2644 2146.3452 2140.623 2144.0043 2142.1836 2238.9408 2133.0801 
14:45:10.926395 2041 2040 2143.4841 2139.3225 2138.2821 2132.0397 2198.6253 2142.9639 2141.6634 2147.3856 2147.9058 2144.5245 2142.4437 2142.4437 2234.5191 2132.2998 
14:45:10.934315 2043 2038 2140.1028 2137.7619 2137.2417 2130.9993 2192.3829 2143.7442 2142.4437 2140.623 2144.2644 2148.9462 2134.1205 2136.7215 2228.5368 2133.8604 
14:45:10.942296 2043 2039 2135.421 2134.1205 2134.3806 2129.6988 2188.7415 2143.224 2140.3629 2134.1205 2138.8023 2142.4437 2130.4791 2134.1205 2227.2363 2132.5599 
14:45:10.950556 2044 2040 2134.6407 2132.82 2133.6003 2128.3983 2192.1228 2141.6634 2140.623 2135.9412 2136.9816 2124.4968 2131.5195 2134.9008 2224.1151 2131.7796 
14:45:10.958387 2042 2040 2134.9008 2132.82 2134.6407 2127.618 2190.042 2139.3225 2143.224 2137.5018 2140.623 2127.0978 2132.82 2136.9816 2222.5545 2133.6003 
14:45:10.965317 2041 2040 2139.5826 2133.3402 2139.3225 2130.7392 2185.1001 2138.5422 2144.0043 2135.1609 2143.224 2146.6053 2136.4614 2143.4841 2227.7565 2139.5826 
14:45:10.973302 2041 2041 2148.9462 2136.2013 2145.3048 2135.421 2186.6607 2142.1836 2145.5649 2142.4437 2146.3452 2149.9866 2141.1432 2151.5472 2235.5595 2139.0624 
14:45:10.981420 2041 2041 2148.1659 2135.421 2142.4437 2132.2998 2187.9612 2141.9235 2144.2644 2144.5245 2145.0447 2135.9412 2137.7619 2149.2063 2230.6176 2139.0624 
14:45:10.989392 2044 2042 2146.8654 2139.8427 2141.6634 2134.1205 2193.9435 2143.4841 2146.3452 2140.1028 2142.4437 2141.9235 2136.9816 2149.4664 2227.7565 2138.022 
14:45:10.997322 2044 2042 2145.825 2141.9235 2140.8831 2137.5018 2195.5041 2143.4841 2147.9058 2134.1205 2136.7215 2144.5245 2135.6811 2147.9058 2227.2363 2138.022 
14:45:11.005298 2046 2042 2143.4841 2140.623 2139.0624 2138.022 2194.4637 2142.7038 2147.9058 2135.1609 2137.5018 2127.618 2135.6811 2146.3452 2227.4964 2137.5018 
14:45:11.014233 2047 2041 2142.9639 2139.8427 2139.5826 2136.2013 2191.3425 2140.3629 2142.1836 2134.3806 2140.1028 2125.5372 2138.5422 2147.3856 2227.7565 2140.623 
14:45:11.021373 2045 2040 2152.3275 2149.7265 2147.6457 2145.3048 2196.8046 2146.8654 2144.2644 2138.022 2146.0851 2151.5472 2150.5068 2155.7088 2237.9004 2142.1836 
14:45:11.028322 2044 2039 2151.5472 2148.9462 2145.825 2144.2644 2196.0243 2144.7846 2144.0043 2138.022 2145.3048 2156.229 2150.5068 2153.3679 2238.4206 2140.8831 
14:45:11.036297 2044 2040 2147.1255 2144.0043 2142.1836 2139.8427 2193.4233 2139.0624 2141.1432 2138.022 2142.9639 2137.5018 2147.1255 2151.5472 2233.9989 2140.623 
14:45:11.045219 2046 2038 2144.5245 2141.4033 2141.1432 2137.7619 2189.2617 2136.4614 2137.7619 2134.6407 2139.3225 2128.6584 2144.7846 2150.2467 2231.3979 2140.3629 
14:45:11.052371 2046 2039 2147.6457 2146.3452 2144.7846 2142.4437 2194.2036 2143.4841 2143.224 2135.9412 2141.4033 2138.8023 2147.3856 2153.1078 2236.0797 2138.022 
14:45:11.060317 2045 2037 2143.4841 2141.9235 2141.1432 2137.7619 2193.6834 2141.9235 2142.9639 2132.82 2138.8023 2135.6811 2141.6634 2148.9462 2230.3575 2139.0624 
14:45:11.068298 2045 2037 2143.224 2140.1028 2140.623 2138.5422 2192.1228 2140.1028 2142.7038 2138.5422 2144.7846 2145.0447 2144.7846 2151.2871 2231.3979 2142.4437 
14:45:11.076776 2045 2038 2144.2644 2142.4437 2142.9639 2141.4033 2191.6026 2138.5422 2138.8023 2142.4437 2148.1659 2154.9285 2149.7265 2153.8881 2235.8196 2141.9235 
14:45:11.084352 2046 2037 2144.5245 2144.0043 2144.2644 2142.4437 2197.0647 2140.623 2139.5826 2138.8023 2144.2644 2144.5245 2149.2063 2152.8477 2234.259 2138.8023 
14:45:11.092316 2045 2037 2141.1432 2138.5422 2140.3629 2138.2821 2196.8046 2138.2821 2140.3629 2132.0397 2139.0624 2138.022 2141.6634 2146.6053 2225.6757 2138.2821 
14:45:11.099305 2043 2039 2146.0851 2143.224 2145.5649 2141.9235 2198.3652 2139.8427 2144.0043 2137.7619 2145.3048 2152.3275 2145.0447 2150.5068 2228.7969 2142.1836 
14:45:11.107819 2046 2039 2151.2871 2150.2467 2151.8073 2148.1659 2199.6657 2142.7038 2147.1255 2144.2644 2149.7265 2147.6457 2152.3275 2155.7088 2234.5191 2143.224 
14:45:11.115360 2045 2037 2147.6457 2146.0851 2148.6861 2145.825 2196.2844 2140.8831 2145.0447 2139.0624 2143.7442 2133.6003 2148.6861 2149.4664 2229.3171 2142.4437 
14:45:11.123322 2047 2037 2142.9639 2140.3629 2144.5245 2139.5826 2193.4233 2138.5422 2144.0043 2138.022 2142.1836 2145.0447 2142.4437 2143.4841 2223.855 2140.3629 
14:45:11.131306 2046 2038 2141.6634 2139.8427 2142.9639 2135.6811 2190.8223 2137.5018 2144.5245 2138.8023 2142.1836 2145.5649 2139.8427 2143.7442 2222.5545 2142.7038 
14:45:11.139695 2044 2038 2146.6053 2144.0043 2146.3452 2139.3225 2194.4637 2141.9235 2144.2644 2137.7619 2142.7038 2132.5599 2144.0043 2149.9866 2225.9358 2142.9639 
14:45:11.147333 2045 2038 2148.9462 2142.9639 2147.6457 2140.3629 2196.0243 2142.9639 2140.1028 2136.2013 2142.9639 2133.8604 2143.224 2151.2871 2225.9358 2144.5245 
14:45:11.155315 2043 2040 2151.027 2146.8654 2149.4664 2143.224 2196.2844 2144.7846 2144.7846 2144.2644 2148.9462 2152.8477 2147.1255 2154.9285 2230.8777 2146.0851 
14:45:11.162310 2044 2039 2145.825 2143.224 2145.0447 2138.5422 2192.3829 2139.5826 2141.1432 2140.1028 2145.5649 2148.6861 2143.7442 2151.027 2227.2363 2147.6457 
14:45:11.170628 2044 2039 2147.1255 2141.4033 2145.0447 2136.9816 2196.2844 2138.8023 2138.022 2137.5018 2142.9639 2133.6003 2141.6634 2149.9866 2224.1151 2146.0851 
14:45:11.178330 2044 2040 2149.9866 2142.9639 2144.2644 2136.4614 2191.6026 2138.022 2141.1432 2140.623 2144.5245 2135.1609 2141.1432 2149.2063 2222.2944 2146.6053 
14:45:11.186311 2046 2039 2153.8881 2149.7265 2147.6457 2142.7038 2191.8627 2141.9235 2146.0851 2146.6053 2151.2871 2153.8881 2147.1255 2153.1078 2226.9762 2148.1659 
14:45:11.194312 2045 2040 2150.2467 2147.1255 2147.3856 2141.6634 2197.0647 2140.8831 2139.3225 2143.4841 2149.4664 2147.3856 2145.5649 2150.5068 2225.1555 2147.1255 
14:45:11.202396 2045 2041 2147.9058 2145.0447 2145.3048 2140.623 2200.9662 2142.1836 2141.4033 2147.1255 2150.7669 2139.5826 2144.5245 2148.9462 2224.8954 2145.5649 
14:45:11.210324 2044 2042 2143.224 2141.9235 2139.8427 2137.5018 2194.9839 2139.0624 2141.1432 2145.3048 2148.1659 2147.3856 2142.9639 2145.5649 2222.0343 2145.5649 
14:45:11.218311 2042 2042 2141.9235 2141.6634 2137.5018 2138.022 2196.2844 2139.0624 2136.9816 2138.022 2144.2644 2148.1659 2143.4841 2143.7442 2219.6934 2144.7846 
14:45:11.225312 2039 2042 2144.5245 2142.4437 2138.8023 2138.2821 2199.6657 2138.8023 2134.6407 2136.2013 2143.7442 2137.2417 2143.7442 2142.1836 2218.9131 2143.4841 
14:45:11.233396 2042 2042 2152.3275 2146.8654 2145.825 2142.1836 2202.5268 2138.5422 2138.5422 2143.7442 2149.2063 2144.7846 2147.9058 2147.6457 2222.2944 2146.3452 
14:45:11.241338 2042 2041 2154.4083 2147.3856 2151.8073 2146.6053 2197.3248 2136.4614 2139.5826 2145.0447 2148.426 2146.3452 2150.7669 2153.8881 2222.2944 2148.6861 
14:45:11.249313 2041 2038 2155.7088 2149.9866 2159.6103 2158.0497 2190.5622 2139.3225 2145.0447 2144.5245 2147.6457 2139.0624 2158.83 2162.7315 2225.6757 2150.7669 
14:45:11.257304 2041 2040 2162.4714 2158.0497 2175.4764 2182.4991 2193.4233 2143.224 2148.1659 2146.8654 2152.3275 2148.426 2176.7769 2178.5976 2236.5999 2152.5876 
14:45:11.265429 2040 2037 2167.6734 2163.2517 2193.9435 2201.2263 2197.845 2140.8831 2143.7442 2144.0043 2151.027 2151.5472 2192.3829 2197.3248 2244.9231 2156.229 
14:45:11.273318 2041 2037 2168.4537 2161.9512 2208.249 2205.3879 2191.0824 2137.5018 2144.5245 2140.3629 2144.2644 2139.5826 2201.7465 2215.2717 2248.0443 2157.5295 
14:45:11.281312 2040 2037 2172.6153 2164.2921 2223.5949 2215.7919 2184.84 2137.2417 2145.3048 2141.9235 2143.7442 2143.4841 2215.7919 2231.658 2254.5468 2160.6507 
14:45:11.289378 2040 2038 2181.7188 2173.9158 2238.4206 2234.5191 2193.6834 2142.1836 2141.4033 2145.0447 2151.027 2160.6507 2235.2994 2246.7438 2268.3321 2162.7315 
14:45:11.296399 2040 2036 2178.0774 2169.4941 2236.3398 2229.5772 2195.5041 2142.4437 2136.4614 2137.5018 2146.3452 2148.1659 2229.5772 2243.8827 2264.6907 2161.9512 
14:45:11.304323 2042 2036 2175.4764 2165.0724 2234.259 2223.0747 2193.6834 2145.825 2142.9639 2140.8831 2145.825 2138.022 2219.6934 2240.2413 2259.2286 2160.6507 
14:45:11.312310 2041 2036 2177.037 2168.1936 2236.3398 2227.7565 2193.6834 2145.3048 2142.1836 2145.5649 2148.9462 2146.6053 2223.0747 2241.0216 2260.7892 2164.032 
14:45:11.320379 2041 2036 2177.2971 2174.1759 2233.9989 2226.9762 2199.6657 2144.7846 2138.8023 2144.0043 2148.6861 2157.5295 2227.4964 2240.5014 2264.4306 2161.431 
14:45:11.328397 2041 2039 2169.234 2169.7542 2220.7338 2212.4106 2196.8046 2142.1836 2138.022 2138.5422 2142.1836 2150.7669 2214.7515 2226.456 2255.3271 2157.5295 
14:45:11.336326 2041 2038 2170.5345 2169.234 2213.7111 2207.2086 2198.8854 2144.7846 2143.224 2142.7038 2144.5245 2146.0851 2207.4687 2216.8323 2250.6453 2157.2694 
14:45:11.344315 2043 2038 2167.6734 2162.4714 2199.1455 2192.1228 2202.0066 2140.623 2138.5422 2136.9816 2141.6634 2143.4841 2194.2036 2203.3071 2241.8019 2155.7088 
14:45:11.352477 2043 2040 2164.2921 2159.6103 2185.6203 2180.4183 2207.4687 2142.1836 2139.8427 2134.6407 2140.3629 2138.5422 2181.1986 2192.1228 2233.2186 2153.1078 
14:45:11.359398 2045 2039 2160.1305 2158.3098 2177.8173 2176.5168 2207.2086 2144.5245 2144.0043 2137.7619 2142.4437 2131.2594 2172.0951 2181.4587 2224.3752 2153.1078 
14:45:11.367324 2044 2039 2157.5295 2156.7492 2172.0951 2172.6153 2208.7692 2144.5245 2144.5245 2142.1836 2147.9058 2138.2821 2168.7138 2175.2163 2222.2944 2152.3275 
14:45:11.375308 2044 2039 2152.5876 2151.027 2161.9512 2159.6103 2209.8096 2140.1028 2140.1028 2142.9639 2148.6861 2149.4664 2161.9512 2167.1532 2219.9535 2150.5068 
14:45:11.383448 2042 2040 2149.2063 2147.9058 2154.4083 2151.5472 2207.9889 2140.1028 2141.4033 2146.8654 2149.9866 2151.8073 2154.4083 2159.8704 2214.2313 2150.2467 
14:45:11.391428 2042 2038 2143.224 2142.9639 2146.0851 2145.5649 2203.3071 2138.2821 2139.3225 2145.0447 2146.6053 2140.623 2145.3048 2149.9866 2206.1682 2147.1255 
14:45:11.399337 2043 2038 2138.2821 2136.9816 2139.0624 2139.8427 2204.6076 2135.1609 2135.9412 2138.2821 2141.9235 2140.623 2139.0624 2143.224 2202.0066 2146.3452 
14:45:11.407325 2043 2037 2139.8427 2136.7215 2139.5826 2139.8427 2210.0697 2135.1609 2136.7215 2136.4614 2141.6634 2142.1836 2136.9816 2143.224 2200.446 2146.0851 
14:45:11.416384 2043 2038 2137.2417 2134.6407 2137.7619 2136.2013 2211.3702 2133.3402 2135.6811 2132.2998 2137.7619 2122.1559 2131.7796 2139.0624 2193.6834 2145.5649 
14:45:11.423395 2043 2037 2135.421 2132.5599 2134.3806 2131.2594 2213.1909 2134.6407 2134.1205 2129.1786 2136.9816 2121.1155 2131.7796 2136.4614 2193.1632 2142.9639 
14:45:11.430331 2041 2037 2138.2821 2132.0397 2131.7796 2127.8781 2212.1505 2135.6811 2133.0801 2129.1786 2138.2821 2144.2644 2130.9993 2135.421 2193.9435 2144.2644 
14:45:11.438321 2041 2036 2137.5018 2133.6003 2131.7796 2129.4387 2213.451 2136.7215 2135.9412 2132.82 2141.1432 2148.6861 2130.9993 2135.6811 2193.6834 2143.7442 
14:45:11.447406 2041 2038 2127.618 2127.3579 2126.3175 2122.9362 2210.5899 2130.9993 2132.0397 2126.0574 2135.9412 2128.3983 2129.1786 2130.219 2188.4814 2142.7038 
14:45:11.454381 2040 2036 2131.7796 2129.9589 2128.1382 2123.1963 2215.0116 2133.8604 2133.0801 2128.3983 2138.5422 2136.4614 2133.6003 2134.3806 2192.3829 2143.4841 
14:45:11.462330 2040 2037 2137.5018 2132.0397 2128.9185 2122.9362 2215.2717 2135.1609 2134.6407 2132.2998 2138.8023 2133.3402 2130.4791 2134.6407 2192.3829 2147.6457 
14:45:11.470323 2040 2036 2137.7619 2132.2998 2129.1786 2123.4564 2222.5545 2136.2013 2140.1028 2138.2821 2139.8427 2117.214 2129.6988 2132.82 2191.8627 2145.5649 
14:45:11.478785 2041 2037 2129.6988 2123.4564 2125.5372 2116.4337 2222.2944 2129.4387 2135.1609 2135.421 2136.9816 2128.9185 2124.4968 2127.0978 2185.6203 2144.0043 
14:45:11.486347 2039 2039 2130.4791 2124.4968 2128.1382 2118.2544 2224.3752 2129.6988 2133.3402 2133.3402 2140.1028 2152.0674 2125.017 2131.5195 2186.6607 2146.8654 
14:45:11.493311 2040 2038 2128.6584 2126.0574 2126.0574 2119.0347 2227.7565 2129.6988 2133.6003 2128.6584 2139.0624 2137.5018 2123.7165 2129.6988 2185.3602 2145.3048 
14:45:11.501300 2041 2038 2127.0978 2125.7973 2121.3756 2116.9539 2229.3171 2130.4791 2136.9816 2129.6988 2138.8023 2129.6988 2122.9362 2125.7973 2184.0597 2143.4841 
14:45:11.509748 2040 2039 2126.5776 2122.1559 2118.2544 2111.4918 2226.7161 2129.9589 2137.2417 2130.4791 2139.0624 2140.623 2120.3352 2124.2367 2181.1986 2143.224 
14:45:11.517347 2041 2042 2127.618 2120.3352 2117.7342 2110.1913 2232.1782 2130.7392 2139.8427 2129.6988 2139.8427 2129.9589 2119.0347 2121.1155 2179.3779 2144.0043 
14:45:11.525283 2042 2042 2128.1382 2121.6357 2118.5145 2114.613 2238.9408 2132.0397 2140.8831 2133.3402 2141.6634 2123.1963 2122.1559 2116.1736 2180.9385 2141.6634 
14:45:11.533306 2043 2043 2129.1786 2123.7165 2120.8554 2118.2544 2237.6403 2134.9008 2139.5826 2134.9008 2142.1836 2142.7038 2122.9362 2115.6534 2181.7188 2146.3452 
14:45:11.541598 2041 2042 2133.6003 2129.1786 2123.9766 2121.3756 2244.663 2141.1432 2143.224 2135.421 2145.3048 2154.4083 2125.5372 2120.3352 2184.5799 2145.825 
14:45:11.549321 2042 2041 2130.9993 2126.3175 2119.2948 2114.8731 2251.6857 2138.022 2140.1028 2132.0397 2141.6634 2142.1836 2122.416 2114.0928 2179.1178 2145.825 
14:45:11.556300 2041 2040 2129.1786 2124.7569 2116.6938 2112.7923 2254.5468 2136.4614 2138.022 2135.9412 2141.1432 2133.6003 2120.0751 2111.2317 2177.037 2144.5245 
14:45:11.564298 2042 2041 2127.618 2122.9362 2114.613 2111.4918 2248.5645 2133.0801 2134.9008 2136.2013 2140.8831 2125.017 2114.8731 2110.7115 2174.6961 2146.0851 
14:45:11.572630 2041 2039 2131.2594 2126.5776 2117.214 2114.8731 2252.9862 2134.6407 2136.7215 2138.022 2143.4841 2131.5195 2119.5549 2113.8327 2178.5976 2145.5649 
14:45:11.580353 2042 2040 2127.618 2123.4564 2113.5726 2109.1509 2254.2867 2131.5195 2134.9008 2134.1205 2139.5826 2139.0624 2117.9943 2109.1509 2175.2163 2145.825 
14:45:11.588321 2040 2041 2130.219 2125.2771 2114.613 2109.6711 2258.7084 2132.5599 2138.5422 2135.1609 2141.1432 2138.8023 2119.815 2113.0524 2175.9966 2146.3452 
14:45:11.596316 2040 2041 2131.2594 2123.1963 2116.4337 2111.2317 2257.1478 2130.7392 2135.1609 2131.7796 2140.623 2138.2821 2120.0751 2114.8731 2175.2163 2149.2063 
14:45:11.604387 2040 2041 2131.2594 2122.9362 2119.815 2114.0928 2254.5468 2132.5599 2135.6811 2132.5599 2142.9639 2139.3225 2123.4564 2117.7342 2178.3375 2149.9866 
14:45:11.612336 2039 2041 2128.3983 2123.7165 2119.5549 2112.2721 2251.6857 2132.82 2137.7619 2133.6003 2141.6634 2124.2367 2122.416 2114.8731 2175.7365 2148.426 
14:45:11.619340 2040 2042 2130.9993 2128.1382 2123.1963 2116.6938 2261.5695 2136.4614 2140.3629 2138.2821 2144.2644 2133.3402 2123.1963 2115.1332 2174.9562 2147.1255 
14:45:11.627330 2040 2041 2131.7796 2127.618 2124.4968 2118.2544 2267.0316 2135.6811 2138.2821 2133.8604 2143.4841 2151.2871 2123.1963 2115.9135 2174.9562 2147.9058 
14:45:11.635434 2039 2040 2137.5018 2133.8604 2129.6988 2122.6761 2271.1932 2141.1432 2144.2644 2133.3402 2148.9462 2148.1659 2130.7392 2123.7165 2181.9789 2148.1659 
14:45:11.643363 2041 2040 2132.2998 2127.8781 2124.2367 2113.3125 2261.3094 2135.421 2137.7619 2126.8377 2141.9235 2132.5599 2123.4564 2115.9135 2174.6961 2148.6861 
14:45:11.651325 2041 2040 2134.1205 2131.5195 2125.7973 2116.9539 2260.5291 2141.1432 2140.623 2131.7796 2142.7038 2143.4841 2124.7569 2116.9539 2176.5168 2145.5649 
14:45:11.659311 2042 2040 2136.9816 2135.9412 2130.4791 2121.6357 2262.3498 2143.224 2141.9235 2135.1609 2145.5649 2140.3629 2127.618 2121.3756 2180.4183 2142.1836 
14:45:11.667408 2041 2040 2134.9008 2131.2594 2129.4387 2118.5145 2261.3094 2134.1205 2132.82 2123.7165 2137.5018 2121.8958 2121.1155 2116.9539 2170.2744 2153.628 
14:45:11.675358 2043 2042 2135.421 2133.6003 2129.6988 2124.2367 2264.6907 2138.022 2134.9008 2124.2367 2137.5018 2135.6811 2122.6761 2119.0347 2168.4537 2147.6457 
14:45:11.682329 2043 2043 2134.1205 2132.5599 2127.0978 2122.1559 2259.2286 2139.5826 2138.022 2132.82 2141.6634 2148.426 2125.2771 2121.8958 2171.835 2140.623 
14:45:11.690302 2042 2042 2136.2013 2130.7392 2127.0978 2117.7342 2256.1074 2132.5599 2135.1609 2140.3629 2145.825 2143.4841 2129.4387 2127.618 2176.2567 2143.7442 
14:45:11.698393 2043 2041 2135.9412 2127.8781 2126.8377 2115.6534 2252.466 2127.3579 2129.4387 2133.8604 2140.623 2125.017 2124.7569 2127.0978 2170.7946 2154.4083 
14:45:11.714325 2044 2043 2132.5599 2126.3175 2121.1155 2111.4918 2246.7438 2133.0801 2136.9816 2139.8427 2141.9235 2134.9008 2120.3352 2123.1963 2168.1936 2146.3452 
14:45:11.722517 2044 2041 2133.6003 2126.3175 2121.1155 2111.4918 2250.6453 2132.82 2139.3225 2136.2013 2142.4437 2134.1205 2119.0347 2123.9766 2167.4133 2148.1659 
14:45:11.730397 2043 2040 2133.8604 2125.7973 2121.8958 2112.2721 2248.3044 2134.1205 2136.4614 2126.5776 2136.4614 2121.8958 2114.0928 2121.3756 2163.2517 2147.6457 
14:45:11.738320 2043 2040 2135.6811 2126.8377 2121.1155 2112.7923 2243.1024 2136.7215 2138.5422 2128.9185 2138.022 2128.3983 2116.9539 2122.1559 2163.7719 2148.6861 
14:45:11.746323 2043 2042 2131.2594 2124.2367 2117.4741 2110.7115 2240.5014 2133.6003 2138.022 2128.6584 2135.9412 2130.219 2117.4741 2119.2948 2161.1709 2147.9058 
14:45:11.753639 2045 2043 2128.9185 2123.9766 2118.2544 2113.0524 2245.4433 2134.9008 2135.9412 2125.5372 2134.1205 2120.8554 2114.613 2116.9539 2158.5699 2142.9639 
14:45:11.761381 2045 2042 2129.4387 2122.9362 2118.5145 2112.2721 2240.5014 2132.2998 2131.2594 2125.2771 2134.1205 2124.2367 2111.4918 2114.8731 2155.9689 2143.224 
14:45:11.769317 2044 2043 2133.6003 2128.6584 2123.7165 2119.5549 2235.8196 2132.82 2135.1609 2129.9589 2136.9816 2141.1432 2120.3352 2121.8958 2162.9916 2147.3856 
14:45:11.777299 2043 2042 2126.8377 2124.7569 2123.7165 2117.9943 2229.5772 2130.219 2132.2998 2123.4564 2130.219 2129.6988 2118.7746 2121.1155 2159.6103 2147.9058 
14:45:11.785449 2044 2041 2129.6988 2126.8377 2127.0978 2121.1155 2236.3398 2136.4614 2135.1609 2126.3175 2133.0801 2121.3756 2121.6357 2124.7569 2160.1305 2143.4841 
14:45:11.793387 2045 2040 2129.9589 2126.5776 2125.7973 2120.3352 2235.5595 2135.421 2135.421 2132.2998 2136.7215 2129.9589 2122.416 2125.017 2160.3906 2144.5245 
14:45:11.801317 2044 2040 2127.618 2126.0574 2125.017 2118.5145 2229.057 2134.9008 2136.9816 2137.7619 2140.1028 2142.4437 2122.6761 2125.017 2162.2113 2146.8654 
14:45:11.809294 2044 2039 2126.5776 2122.9362 2124.7569 2113.3125 2218.1328 2133.6003 2132.0397 2130.219 2138.8023 2131.7796 2118.2544 2122.416 2159.0901 2144.5245 
14:45:11.816456 2044 2039 2133.8604 2127.3579 2128.3983 2115.6534 2213.1909 2134.1205 2130.219 2126.3175 2139.8427 2126.8377 2124.2367 2128.6584 2164.2921 2146.6053 
14:45:11.824395 2044 2038 2137.7619 2129.1786 2128.3983 2116.9539 2211.6303 2131.7796 2129.9589 2132.82 2141.4033 2139.3225 2128.9185 2132.2998 2168.7138 2149.9866 
14:45:11.832321 2043 2040 2135.421 2125.5372 2125.5372 2114.0928 2206.9485 2132.0397 2130.9993 2138.8023 2144.0043 2137.5018 2125.2771 2128.9185 2165.3325 2150.7669 
14:45:11.840294 2044 2040 2134.1205 2126.5776 2125.7973 2114.8731 2199.1455 2134.1205 2133.6003 2138.022 2145.0447 2132.0397 2125.2771 2129.1786 2165.8527 2147.6457 
14:45:11.849340 2043 2041 2136.9816 2129.6988 2128.1382 2119.0347 2199.9258 2134.9008 2136.2013 2135.1609 2143.224 2142.4437 2127.8781 2132.0397 2167.1532 2150.2467 
14:45:11.856359 2044 2040 2139.0624 2130.9993 2129.9589 2123.1963 2208.249 2138.5422 2138.8023 2135.9412 2143.4841 2147.3856 2129.1786 2132.0397 2166.3729 2149.7265 
14:45:11.864311 2044 2040 2133.3402 2126.8377 2127.3579 2119.0347 2203.3071 2136.7215 2135.6811 2129.4387 2138.5422 2132.0397 2124.7569 2125.5372 2161.6911 2150.2467 
14:45:11.872296 2044 2040 2135.6811 2130.4791 2130.219 2119.815 2202.2667 2139.3225 2138.5422 2128.6584 2139.3225 2135.6811 2126.8377 2128.1382 2164.2921 2147.3856 
14:45:11.880768 2044 2039 2138.022 2130.219 2130.7392 2119.5549 2201.2263 2138.8023 2138.8023 2125.2771 2136.4614 2138.2821 2124.4968 2128.6584 2159.6103 2147.3856 
14:45:11.887350 2044 2039 2141.1432 2133.0801 2134.9008 2125.017 2200.9662 2141.9235 2141.6634 2130.7392 2138.022 2129.1786 2128.6584 2134.1205 2161.9512 2148.426 
14:45:11.895316 2045 2040 2135.9412 2128.1382 2131.2594 2120.3352 2194.2036 2135.421 2135.421 2127.3579 2133.8604 2125.5372 2125.5372 2129.9589 2160.6507 2149.4664 
14:45:11.903316 2044 2042 2131.7796 2126.5776 2128.3983 2117.4741 2197.3248 2132.2998 2130.9993 2117.4741 2131.2594 2135.6811 2121.3756 2125.5372 2155.9689 2143.7442 
14:45:11.911800 2043 2040 2124.2367 2121.8958 2122.1559 2112.7923 2189.2617 2126.8377 2126.3175 2109.6711 2127.618 2124.2367 2114.8731 2119.5549 2147.3856 2144.7846 
14:45:11.919349 2043 2039 2130.7392 2128.3983 2126.0574 2121.1155 2188.2213 2130.4791 2134.1205 2125.7973 2137.7619 2119.2948 2125.2771 2128.9185 2159.0901 2149.2063 
14:45:11.927317 2043 2039 2133.3402 2129.4387 2127.8781 2122.9362 2190.5622 2131.7796 2135.9412 2131.2594 2139.8427 2129.9589 2127.3579 2129.6988 2160.3906 2148.1659 
14:45:11.935315 2045 2039 2129.1786 2128.1382 2125.5372 2118.7746 2191.0824 2133.6003 2134.9008 2129.1786 2139.8427 2139.5826 2123.9766 2125.017 2155.9689 2145.0447 
14:45:11.943657 2045 2040 2122.6761 2123.7165 2120.3352 2113.5726 2183.5395 2129.4387 2129.1786 2127.618 2137.7619 2124.2367 2123.4564 2120.8554 2155.7088 2146.6053 
14:45:11.950317 2044 2039 2127.0978 2126.5776 2125.017 2120.8554 2189.2617 2134.3806 2136.2013 2133.3402 2141.6634 2125.5372 2128.3983 2124.2367 2160.3906 2147.3856 
14:45:11.958299 2042 2038 2129.9589 2127.618 2130.219 2122.9362 2192.9031 2136.7215 2140.623 2133.8604 2142.4437 2138.5422 2126.3175 2125.7973 2157.7896 2147.6457 
14:45:11.966321 2043 2038 2132.2998 2130.7392 2133.6003 2123.7165 2191.6026 2136.9816 2138.8023 2134.1205 2144.0043 2141.9235 2127.0978 2130.219 2159.8704 2152.3275 
14:45:11.974641 2043 2038 2132.5599 2131.2594 2132.0397 2124.4968 2189.7819 2136.9816 2134.6407 2135.1609 2142.4437 2138.022 2127.8781 2129.6988 2161.9512 2150.5068 
14:45:11.982337 2042 2036 2134.6407 2134.1205 2132.0397 2125.5372 2190.042 2139.0624 2135.6811 2130.7392 2136.9816 2133.6003 2127.618 2127.3579 2157.7896 2149.2063 
14:45:11.990304 2043 2038 2137.5018 2139.8427 2136.2013 2130.4791 2193.9435 2142.7038 2140.1028 2127.0978 2137.2417 2136.9816 2130.4791 2132.0397 2156.7492 2148.9462 
14:45:11.998307 2043 2038 2134.6407 2136.4614 2134.9008 2128.9185 2190.8223 2141.9235 2138.2821 2128.1382 2138.2821 2133.8604 2129.9589 2131.7796 2157.2694 2150.5068 
14:45:12.006382 2042 2038 2135.1609 2134.9008 2132.0397 2125.7973 2184.84 2140.623 2138.022 2135.9412 2140.1028 2125.5372 2131.5195 2129.6988 2160.6507 2149.7265 
14:45:12.014327 2043 2039 2132.0397 2131.5195 2127.3579 2120.8554 2180.9385 2133.6003 2136.2013 2130.7392 2135.9412 2117.4741 2129.9589 2125.5372 2156.229 2151.2871 
14:45:12.021311 2044 2039 2132.0397 2130.9993 2127.0978 2122.416 2182.4991 2134.1205 2138.5422 2129.4387 2138.5422 2129.9589 2132.0397 2129.4387 2156.7492 2148.9462 
14:45:12.029294 2045 2041 2125.017 2123.1963 2120.8554 2114.3529 2169.4941 2131.2594 2133.3402 2128.1382 2134.9008 2132.82 2121.6357 2122.416 2149.7265 2147.9058 
14:45:12.037385 2043 2038 2125.017 2124.2367 2121.1155 2113.0524 2167.6734 2131.2594 2130.219 2131.5195 2132.2998 2127.0978 2119.815 2120.0751 2147.6457 2146.8654 
14:45:12.045315 2043 2038 2128.3983 2126.8377 2124.7569 2115.6534 2173.9158 2130.219 2127.0978 2129.1786 2133.6003 2124.2367 2125.2771 2121.6357 2149.2063 2148.9462 
14:45:12.053297 2043 2041 2133.0801 2134.3806 2133.8604 2126.8377 2180.9385 2139.5826 2132.82 2132.82 2143.7442 2137.7619 2134.1205 2132.0397 2159.6103 2149.2063 
14:45:12.061271 2042 2041 2128.6584 2131.7796 2133.3402 2127.3579 2174.436 2139.8427 2131.2594 2129.4387 2140.8831 2137.5018 2127.8781 2130.4791 2156.7492 2149.9866 
14:45:12.069385 2044 2041 2134.1205 2134.9008 2134.6407 2130.7392 2177.037 2141.6634 2136.2013 2134.1205 2144.0043 2131.7796 2132.82 2133.3402 2160.1305 2151.2871 
14:45:12.077310 2045 2040 2136.9816 2137.5018 2135.1609 2130.7392 2178.3375 2140.3629 2138.8023 2133.8604 2144.7846 2131.2594 2138.8023 2135.421 2163.2517 2152.8477 
14:45:12.084300 2044 2041 2133.0801 2136.4614 2134.1205 2132.0397 2180.9385 2141.9235 2141.1432 2128.3983 2141.4033 2143.4841 2136.4614 2132.0397 2157.5295 2149.4664 
14:45:12.092309 2044 2041 2126.8377 2127.3579 2126.5776 2126.8377 2175.4764 2136.9816 2135.9412 2122.6761 2136.2013 2140.3629 2127.618 2122.9362 2146.8654 2147.3856 
14:45:12.100387 2044 2039 2133.3402 2130.9993 2129.1786 2127.8781 2169.234 2136.7215 2133.6003 2127.0978 2136.7215 2132.0397 2131.7796 2127.3579 2152.3275 2151.8073 
14:45:12.108306 2044 2039 2133.8604 2133.3402 2131.7796 2126.5776 2161.6911 2136.9816 2130.7392 2130.4791 2134.6407 2132.5599 2132.2998 2130.219 2153.628 2151.2871 
14:45:12.116311 2044 2040 2129.6988 2127.3579 2127.0978 2121.8958 2160.3906 2134.6407 2131.5195 2131.2594 2134.9008 2135.9412 2127.618 2127.618 2147.3856 2149.9866 
14:45:12.124371 2044 2040 2127.0978 2123.1963 2124.7569 2118.2544 2160.3906 2130.219 2130.9993 2126.8377 2132.5599 2125.017 2125.5372 2126.5776 2146.6053 2148.9462 
14:45:12.132386 2044 2041 2128.9185 2126.8377 2130.219 2120.0751 2155.4487 2130.7392 2131.2594 2125.5372 2130.9993 2117.7342 2129.6988 2130.4791 2151.2871 2151.027 
14:45:12.140312 2045 2041 2133.6003 2133.6003 2135.1609 2126.0574 2153.628 2136.7215 2136.9816 2134.1205 2139.3225 2136.4614 2136.2013 2136.4614 2155.9689 2150.7669 
14:45:12.147306 2045 2043 2133.3402 2132.2998 2133.8604 2125.5372 2153.8881 2136.7215 2138.2821 2133.6003 2140.1028 2146.0851 2134.1205 2134.9008 2153.3679 2151.2871 
14:45:12.155414 2046 2042 2138.022 2134.1205 2136.7215 2127.8781 2153.628 2137.7619 2139.5826 2133.0801 2137.5018 2136.9816 2137.2417 2138.022 2157.5295 2150.2467 
14:45:12.163383 2045 2043 2135.9412 2130.4791 2134.1205 2125.2771 2141.6634 2135.6811 2140.1028 2132.82 2134.9008 2132.0397 2134.6407 2134.3806 2154.6684 2153.628 
14:45:12.171313 2046 2043 2132.5599 2128.9185 2132.2998 2124.4968 2140.1028 2136.7215 2143.224 2135.421 2139.3225 2143.224 2132.2998 2131.7796 2152.3275 2152.8477 
14:45:12.179307 2046 2043 2128.6584 2126.3175 2130.9993 2120.8554 2141.4033 2134.1205 2137.2417 2126.8377 2133.3402 2130.4791 2128.1382 2127.3579 2147.1255 2152.3275 
14:45:12.187475 2045 2043 2134.6407 2134.3806 2136.7215 2130.9993 2144.0043 2139.8427 2139.3225 2131.5195 2135.9412 2132.0397 2138.022 2135.9412 2154.9285 2153.3679 
14:45:12.195388 2045 2043 2135.1609 2134.9008 2135.1609 2133.8604 2135.6811 2136.2013 2137.5018 2133.6003 2135.421 2146.0851 2139.3225 2135.9412 2154.4083 2154.4083 
14:45:12.203314 2045 2044 2137.2417 2138.5422 2140.623 2136.2013 2138.022 2139.0624 2139.0624 2130.9993 2135.1609 2147.1255 2138.2821 2135.421 2151.8073 2150.2467 
14:45:12.210295 2044 2043 2137.2417 2140.1028 2148.426 2138.5422 2134.3806 2139.5826 2134.3806 2123.1963 2131.5195 2134.3806 2142.7038 2139.3225 2151.5472 2151.5472 
14:45:12.218429 2044 2041 2145.825 2149.2063 2162.7315 2159.0901 2133.6003 2141.6634 2135.1609 2127.3579 2134.6407 2137.5018 2162.7315 2157.5295 2165.0724 2157.0093 
14:45:12.226405 2045 2042 2147.3856 2151.2871 2171.835 2176.7769 2129.1786 2137.5018 2133.8604 2126.8377 2133.3402 2134.6407 2172.6153 2167.4133 2170.0143 2158.5699 
14:45:12.234331 2044 2041 2149.9866 2154.4083 2185.3602 2190.042 2125.5372 2138.5422 2137.7619 2125.7973 2134.6407 2130.7392 2182.7592 2181.4587 2175.4764 2160.1305 
14:45:12.242312 2044 2040 2155.1886 2156.7492 2204.3475 2199.4056 2120.0751 2137.2417 2140.1028 2131.7796 2137.2417 2136.7215 2199.1455 2203.3071 2185.6203 2165.3325 
14:45:12.251019 2042 2040 2160.9108 2161.9512 2219.6934 2213.451 2119.815 2136.2013 2142.1836 2143.224 2141.6634 2144.2644 2216.8323 2222.5545 2198.3652 2170.0143 
14:45:12.258367 2042 2038 2159.8704 2162.4714 2223.0747 2222.5545 2115.3933 2133.6003 2139.0624 2137.7619 2140.3629 2143.7442 2222.8146 2229.057 2200.446 2170.0143 
14:45:12.266312 2041 2038 2165.0724 2159.6103 2227.4964 2224.6353 2112.012 2134.1205 2138.022 2132.5599 2141.9235 2145.0447 2225.4156 2235.8196 2202.0066 2172.8754 
14:45:12.274298 2042 2039 2167.4133 2157.2694 2229.3171 2219.4333 2112.5322 2133.0801 2137.2417 2138.2821 2143.224 2142.4437 2224.1151 2236.0797 2203.5672 2171.0547 
14:45:12.282356 2043 2038 2157.2694 2157.7896 2220.9939 2213.451 2110.9716 2130.9993 2137.2417 2136.2013 2137.7619 2137.5018 2216.052 2222.8146 2195.244 2167.1532 
14:45:12.289355 2042 2039 2155.7088 2162.7315 2215.5318 2214.2313 2115.3933 2138.5422 2143.224 2137.2417 2139.0624 2140.623 2212.9308 2216.3121 2191.6026 2163.2517 
14:45:12.297307 2042 2038 2158.5699 2158.0497 2205.648 2203.5672 2120.0751 2142.7038 2141.4033 2140.1028 2140.3629 2138.022 2204.0874 2207.9889 2187.7011 2164.032 
14:45:12.305295 2043 2039 2154.9285 2150.7669 2190.5622 2188.2213 2122.416 2141.4033 2138.8023 2139.8427 2140.623 2138.8023 2193.6834 2194.4637 2181.4587 2160.1305 
14:45:12.313779 2044 2039 2145.3048 2145.0447 2176.5168 2173.9158 2114.3529 2135.421 2134.9008 2131.5195 2134.6407 2139.8427 2179.8981 2177.5572 2170.2744 2159.0901 
14:45:12.321341 2042 2040 2145.825 2146.6053 2170.0143 2168.4537 2118.5145 2140.3629 2138.5422 2138.2821 2139.0624 2140.3629 2173.1355 2170.0143 2167.9335 2156.7492 
14:45:12.329304 2042 2041 2138.022 2135.421 2154.6684 2151.5472 2117.4741 2136.2013 2135.9412 2136.9816 2137.2417 2122.1559 2157.2694 2153.628 2155.1886 2154.9285 
14:45:12.337294 2042 2042 2137.5018 2133.3402 2149.2063 2146.3452 2118.7746 2133.3402 2139.0624 2133.6003 2138.2821 2126.0574 2153.1078 2147.6457 2150.2467 2153.3679 
14:45:12.344763 2041 2042 2137.2417 2132.82 2145.0447 2140.8831 2115.6534 2129.9589 2135.6811 2131.2594 2137.5018 2138.8023 2149.2063 2143.4841 2147.3856 2156.4891 
14:45:12.352335 2040 2041 2140.1028 2135.6811 2141.9235 2137.7619 2117.7342 2135.1609 2137.2417 2136.9816 2140.623 2140.1028 2148.9462 2145.5649 2150.5068 2158.0497 
14:45:12.360298 2039 2039 2135.6811 2132.2998 2135.421 2132.0397 2117.214 2135.1609 2138.2821 2136.2013 2138.5422 2129.9589 2141.4033 2139.3225 2145.5649 2157.0093 
14:45:12.368293 2040 2038 2133.0801 2132.0397 2132.82 2129.1786 2120.3352 2135.9412 2139.5826 2142.9639 2143.7442 2137.2417 2139.3225 2136.2013 2146.8654 2157.2694 
14:45:12.376574 2040 2040 2128.9185 2125.2771 2126.8377 2119.815 2116.1736 2129.4387 2130.4791 2138.5422 2140.8831 2139.3225 2135.421 2130.7392 2145.5649 2158.5699 
14:45:12.384321 2040 2039 2130.4791 2126.3175 2127.0978 2121.6357 2119.2948 2131.5195 2129.9589 2128.1382 2135.421 2131.7796 2134.3806 2128.3983 2142.7038 2156.7492 
14:45:12.392300 2040 2040 2133.8604 2131.2594 2129.6988 2127.618 2121.3756 2135.1609 2134.1205 2127.0978 2134.9008 2130.219 2134.1205 2128.1382 2141.4033 2154.9285 
14:45:12.400292 2038 2039 2136.7215 2134.9008 2132.5599 2128.1382 2116.4337 2136.2013 2137.2417 2134.1205 2139.3225 2135.9412 2137.7619 2130.7392 2144.7846 2157.2694 
14:45:12.407570 2040 2041 2135.6811 2131.7796 2130.4791 2122.416 2114.8731 2132.2998 2135.9412 2133.3402 2138.022 2136.4614 2135.6811 2129.4387 2142.9639 2155.1886 
14:45:12.415324 2041 2042 2129.6988 2125.5372 2124.7569 2120.3352 2122.6761 2131.7796 2139.8427 2129.9589 2135.6811 2133.6003 2126.0574 2122.6761 2133.6003 2151.2871 
14:45:12.423304 2042 2040 2124.2367 2119.815 2120.5953 2120.0751 2119.5549 2132.2998 2143.4841 2130.4791 2135.9412 2130.219 2119.815 2116.1736 2125.7973 2147.1255 
14:45:12.431317 2039 2040 2123.1963 2116.4337 2117.9943 2112.2721 2107.3302 2125.017 2135.421 2124.2367 2130.9993 2125.7973 2119.815 2113.8327 2123.7165 2150.2467 
14:45:12.439439 2040 2040 2125.7973 2120.0751 2118.5145 2107.8504 2111.2317 2124.2367 2134.9008 2126.8377 2130.4791 2126.8377 2124.4968 2119.0347 2129.6988 2151.027 
14:45:12.447337 2043 2041 2122.9362 2119.2948 2117.214 2106.81 2114.0928 2124.7569 2135.1609 2129.1786 2132.0397 2123.7165 2121.3756 2117.9943 2127.8781 2151.5472 
14:45:12.455316 2043 2041 2128.9185 2125.2771 2122.416 2115.9135 2115.9135 2130.219 2131.7796 2130.219 2136.2013 2126.5776 2126.5776 2123.1963 2131.7796 2152.3275 
14:45:12.463359 2046 2042 2131.5195 2125.5372 2122.416 2113.3125 2113.0524 2128.3983 2125.5372 2128.1382 2133.8604 2130.219 2127.0978 2123.9766 2134.6407 2155.9689 
14:45:12.471403 2045 2041 2128.6584 2124.4968 2118.5145 2106.2898 2113.5726 2126.3175 2127.0978 2131.2594 2133.8604 2134.9008 2125.017 2121.8958 2135.421 2152.0674 
14:45:12.478326 2045 2040 2121.8958 2118.7746 2113.0524 2100.5676 2107.5903 2121.8958 2123.4564 2123.4564 2129.4387 2124.7569 2117.4741 2114.0928 2125.2771 2148.9462 
14:45:12.486317 2045 2040 2125.2771 2122.1559 2116.6938 2108.3706 2110.9716 2128.9185 2129.6988 2124.2367 2134.6407 2129.6988 2121.1155 2118.2544 2128.3983 2149.2063 
14:45:12.494306 2046 2040 2120.5953 2117.7342 2112.7923 2104.4691 2110.9716 2126.3175 2130.4791 2122.1559 2134.3806 2132.0397 2119.0347 2115.1332 2126.8377 2151.5472 
14:45:12.502386 2046 2039 2120.8554 2120.3352 2113.3125 2104.9893 2114.8731 2125.017 2130.219 2124.2367 2136.9816 2127.3579 2121.8958 2117.7342 2128.6584 2150.7669 
14:45:12.510326 2045 2039 2122.1559 2122.9362 2114.0928 2107.0701 2112.7923 2125.5372 2129.9589 2124.4968 2135.421 2119.2948 2120.8554 2117.214 2125.7973 2150.5068 
14:45:12.518313 2048 2039 2122.416 2123.4564 2114.613 2110.4514 2114.3529 2134.1205 2138.022 2128.6584 2135.9412 2129.1786 2118.5145 2114.0928 2122.9362 2150.5068 
14:45:12.526381 2048 2039 2116.1736 2116.4337 2111.4918 2104.7292 2114.8731 2131.2594 2133.0801 2126.0574 2132.0397 2135.9412 2114.3529 2108.3706 2119.815 2150.5068 
14:45:12.534386 2049 2039 2120.0751 2120.0751 2114.0928 2105.5095 2117.214 2129.1786 2129.9589 2127.3579 2133.6003 2127.0978 2118.7746 2110.9716 2123.7165 2151.027 
14:45:12.541310 2049 2039 2122.416 2124.2367 2114.0928 2107.3302 2112.012 2129.9589 2130.9993 2128.6584 2135.421 2121.6357 2118.7746 2110.4514 2122.6761 2149.7265 
14:45:12.549296 2046 2039 2123.7165 2125.5372 2114.0928 2106.81 2111.7519 2130.219 2130.219 2129.6988 2135.6811 2130.7392 2119.0347 2112.2721 2123.9766 2151.8073 
14:45:12.557378 2046 2039 2126.5776 2126.8377 2115.3933 2106.0297 2117.9943 2126.8377 2126.3175 2129.4387 2134.3806 2130.9993 2123.1963 2117.4741 2128.3983 2152.5876 
14:45:12.565386 2046 2041 2126.5776 2125.7973 2113.8327 2104.9893 2118.7746 2122.6761 2124.4968 2123.7165 2130.9993 2113.8327 2122.6761 2117.214 2126.5776 2153.3679 
14:45:12.573312 2046 2040 2124.7569 2125.7973 2114.8731 2106.2898 2115.3933 2125.2771 2126.3175 2122.9362 2132.2998 2116.9539 2120.8554 2115.9135 2126.5776 2150.2467 
14:45:12.581295 2045 2041 2124.2367 2126.5776 2115.9135 2106.2898 2110.9716 2127.3579 2123.9766 2125.7973 2133.8604 2132.0397 2118.7746 2114.8731 2126.8377 2151.5472 
14:45:12.589443 2044 2041 2131.7796 2131.2594 2118.7746 2109.411 2114.8731 2128.9185 2124.4968 2130.7392 2135.1609 2127.8781 2126.0574 2120.8554 2130.9993 2152.8477 
14:45:12.597386 2044 2039 2128.1382 2125.2771 2115.1332 2105.7696 2115.6534 2126.3175 2125.7973 2127.0978 2128.6584 2116.1736 2122.416 2116.6938 2125.017 2153.1078 
14:45:12.605332 2045 2039 2123.1963 2123.4564 2114.613 2107.8504 2119.5549 2133.6003 2133.0801 2129.6988 2131.7796 2129.9589 2115.6534 2113.0524 2119.2948 2149.9866 
14:45:12.612292 2045 2039 2120.8554 2122.416 2114.0928 2106.81 2117.9943 2133.8604 2128.6584 2123.1963 2129.9589 2125.7973 2109.1509 2108.3706 2112.2721 2150.5068 
14:45:12.620443 2045 2037 2126.3175 2126.8377 2116.4337 2108.6307 2125.5372 2134.3806 2129.6988 2125.7973 2132.2998 2119.5549 2114.8731 2113.3125 2116.9539 2149.7265 
14:45:12.628381 2045 2037 2121.8958 2122.1559 2112.2721 2104.7292 2122.9362 2132.0397 2133.3402 2129.1786 2131.2594 2122.9362 2112.2721 2110.9716 2115.1332 2148.1659 
14:45:12.636308 2044 2038 2119.0347 2122.1559 2112.2721 2106.0297 2119.2948 2133.3402 2136.7215 2125.5372 2130.7392 2121.8958 2112.5322 2109.1509 2113.8327 2145.825 
14:45:12.644290 2045 2039 2115.1332 2117.4741 2108.6307 2100.3075 2114.8731 2124.2367 2126.8377 2116.9539 2127.0978 2113.0524 2111.4918 2105.2494 2111.7519 2148.426 
14:45:12.653342 2045 2040 2122.1559 2123.9766 2112.7923 2106.2898 2123.4564 2127.0978 2128.3983 2128.3983 2136.2013 2130.9993 2119.2948 2112.7923 2121.1155 2151.8073 
14:45:12.660361 2046 2040 2126.8377 2128.1382 2115.9135 2110.1913 2124.4968 2129.4387 2128.1382 2128.9185 2135.421 2128.9185 2121.1155 2115.3933 2121.8958 2153.1078 
14:45:12.668311 2045 2039 2126.3175 2124.7569 2114.8731 2106.0297 2118.7746 2127.3579 2123.9766 2120.3352 2130.219 2107.5903 2117.4741 2114.3529 2117.214 2152.8477 
14:45:12.675313 2045 2039 2121.1155 2115.1332 2109.6711 2097.4464 2110.9716 2124.4968 2122.416 2123.7165 2131.5195 2113.5726 2108.8908 2109.1509 2112.2721 2151.8073 
14:45:12.684383 2045 2040 2126.0574 2118.7746 2112.2721 2101.608 2116.4337 2128.1382 2130.4791 2137.2417 2139.5826 2131.2594 2113.5726 2113.3125 2119.815 2154.1482 
14:45:12.691380 2045 2040 2129.1786 2125.017 2115.3933 2106.5499 2121.3756 2126.8377 2128.9185 2132.5599 2135.9412 2121.8958 2119.2948 2117.9943 2122.9362 2154.4083 
14:45:12.699319 2044 2040 2123.7165 2123.9766 2114.3529 2105.7696 2120.0751 2125.017 2121.8958 2124.2367 2130.9993 2119.5549 2114.8731 2113.5726 2116.4337 2152.0674 
14:45:12.707315 2043 2039 2120.3352 2122.416 2113.5726 2106.0297 2120.5953 2128.3983 2122.9362 2126.8377 2132.82 2128.1382 2110.1913 2108.6307 2113.5726 2147.1255 
14:45:12.715800 2043 2041 2121.3756 2120.8554 2112.012 2105.5095 2121.3756 2129.9589 2128.1382 2125.2771 2130.9993 2116.9539 2108.1105 2108.6307 2111.2317 2148.9462 
14:45:12.731348 2042 2039 2123.9766 2117.214 2111.2317 2102.6484 2119.2948 2128.6584 2128.6584 2126.0574 2131.5195 2123.7165 2110.9716 2105.2494 2113.0524 2151.027 
14:45:12.738313 2043 2040 2115.3933 2111.2317 2105.7696 2098.4868 2122.416 2124.2367 2127.3579 2116.1736 2125.017 2114.0928 2102.6484 2095.3656 2104.7292 2155.9689 
14:45:12.746875 2043 2040 2127.3579 2133.0801 2117.4741 2121.3756 2142.9639 2144.7846 2146.3452 2131.2594 2141.9235 2126.3175 2121.8958 2112.7923 2120.0751 2139.5826 
14:45:12.754342 2042 2038 2118.5145 2122.416 2110.7115 2110.4514 2122.1559 2129.9589 2125.2771 2123.7165 2133.6003 2119.5549 2114.3529 2104.209 2110.9716 2141.9235 
14:45:12.762330 2042 2040 2109.6711 2107.8504 2100.0474 2093.805 2107.5903 2112.2721 2103.9489 2107.8504 2120.3352 2106.5499 2103.1686 2094.3252 2100.0474 2161.1709 
14:45:12.770309 2041 2039 2126.0574 2130.4791 2112.2721 2116.1736 2138.022 2133.3402 2124.7569 2124.7569 2136.2013 2126.5776 2123.4564 2113.0524 2120.3352 2149.2063 
14:45:12.778668 2041 2041 2126.3175 2135.9412 2114.3529 2121.8958 2141.4033 2139.3225 2131.2594 2129.1786 2139.5826 2131.5195 2125.7973 2111.4918 2124.2367 2140.3629 
14:45:12.786333 2039 2039 2113.8327 2117.214 2104.9893 2102.9085 2115.9135 2123.1963 2116.1736 2113.0524 2124.7569 2114.0928 2110.7115 2094.0651 2108.6307 2152.3275 
14:45:12.794301 2041 2039 2116.6938 2116.4337 2105.5095 2101.8681 2114.613 2124.7569 2119.0347 2113.3125 2125.7973 2115.6534 2110.9716 2094.5853 2107.8504 2158.5699 
14:45:12.802306 2042 2039 2129.6988 2134.9008 2117.4741 2120.8554 2135.421 2139.5826 2134.9008 2131.5195 2143.4841 2136.7215 2126.3175 2110.4514 2125.7973 2147.1255 
14:45:12.809619 2043 2039 2119.5549 2123.4564 2110.1913 2110.1913 2126.5776 2126.0574 2123.7165 2118.2544 2132.82 2123.4564 2113.8327 2097.4464 2114.3529 2155.9689 
14:45:12.817320 2041 2038 2124.7569 2126.0574 2113.5726 2114.8731 2130.9993 2134.1205 2130.4791 2124.4968 2139.0624 2123.4564 2119.815 2101.0878 2117.7342 2151.8073 
14:45:12.825299 2043 2041 2121.1155 2121.6357 2109.9312 2110.1913 2125.5372 2131.7796 2123.9766 2121.6357 2134.9008 2119.2948 2113.5726 2097.4464 2112.012 2149.2063 
14:45:12.833291 2043 2041 2123.9766 2125.017 2111.4918 2113.8327 2130.4791 2131.2594 2124.2367 2118.5145 2133.6003 2129.9589 2115.3933 2099.007 2114.0928 2153.1078 
14:45:12.841398 2043 2041 2127.0978 2127.8781 2115.9135 2118.5145 2129.6988 2132.2998 2128.6584 2119.5549 2134.3806 2137.5018 2121.6357 2100.3075 2117.4741 2149.7265 
14:45:12.849323 2042 2041 2122.416 2124.4968 2114.3529 2114.613 2119.815 2129.4387 2124.2367 2117.7342 2131.5195 2127.618 2118.7746 2095.6257 2113.0524 2149.2063 
14:45:12.857304 2042 2041 2120.5953 2127.0978 2114.3529 2115.3933 2123.7165 2128.9185 2119.0347 2117.4741 2133.3402 2121.8958 2119.0347 2095.8858 2114.0928 2147.6457 
14:45:12.865330 2042 2040 2122.9362 2129.6988 2114.3529 2117.214 2126.8377 2128.1382 2117.9943 2115.1332 2132.2998 2120.8554 2118.2544 2095.6257 2113.5726 2148.9462 
14:45:12.872375 2043 2041 2129.4387 2135.1609 2118.5145 2122.416 2125.5372 2134.1205 2127.3579 2120.8554 2134.1205 2128.3983 2122.1559 2101.3479 2116.6938 2149.4664 
14:45:12.880310 2043 2042 2128.3983 2133.3402 2117.9943 2120.0751 2121.8958 2133.6003 2126.5776 2120.0751 2133.3402 2127.3579 2121.3756 2102.1282 2116.6938 2151.027 
14:45:12.888294 2040 2040 2125.2771 2129.9589 2116.4337 2117.4741 2122.416 2129.4387 2120.0751 2116.1736 2135.1609 2126.0574 2120.8554 2099.2671 2115.6534 2147.9058 
14:45:12.896291 2042 2041 2121.1155 2123.9766 2112.012 2112.5322 2116.4337 2124.2367 2115.9135 2113.5726 2133.0801 2128.6584 2116.4337 2094.3252 2109.411 2147.6457 
14:45:12.904381 2042 2040 2123.1963 2124.7569 2112.7923 2114.0928 2115.3933 2127.8781 2122.6761 2117.7342 2132.5599 2127.618 2117.4741 2097.7065 2112.5322 2150.5068 
14:45:12.912308 2042 2041 2120.3352 2120.8554 2111.7519 2109.9312 2108.6307 2125.017 2121.8958 2113.3125 2129.9589 2109.6711 2112.2721 2093.0247 2111.4918 2149.9866 
14:45:12.920291 2044 2042 2120.0751 2120.0751 2111.4918 2110.1913 2106.5499 2123.1963 2121.6357 2115.3933 2134.1205 2116.4337 2112.012 2090.9439 2109.9312 2146.8654 
14:45:12.928351 2040 2041 2119.0347 2119.5549 2110.4514 2110.9716 2109.9312 2123.9766 2124.7569 2118.2544 2134.9008 2134.1205 2113.5726 2091.204 2106.81 2147.9058 
14:45:12.936376 2040 2041 2119.2948 2123.1963 2113.0524 2113.5726 2115.1332 2129.6988 2131.2594 2119.5549 2134.1205 2128.6584 2114.8731 2092.5045 2107.5903 2147.6457 
14:45:12.943315 2042 2040 2116.9539 2121.3756 2111.4918 2110.1913 2112.2721 2128.6584 2128.6584 2116.9539 2131.7796 2111.7519 2108.8908 2087.0424 2103.4287 2145.3048 
14:45:12.951301 2043 2041 2120.0751 2123.7165 2115.1332 2114.8731 2116.1736 2132.5599 2131.7796 2124.4968 2137.7619 2123.4564 2111.4918 2090.6838 2104.9893 2147.9058 
14:45:12.959368 2046 2040 2121.3756 2126.5776 2118.2544 2117.7342 2117.9943 2134.3806 2133.8604 2129.6988 2140.623 2136.9816 2114.8731 2093.5449 2108.1105 2149.7265 
14:45:12.967389 2044 2040 2122.9362 2129.4387 2118.5145 2117.9943 2118.2544 2132.0397 2128.1382 2126.8377 2138.2821 2125.2771 2117.214 2093.805 2109.9312 2148.426 
14:45:12.975318 2046 2040 2125.017 2129.6988 2118.7746 2121.3756 2119.2948 2128.9185 2121.1155 2125.017 2136.9816 2114.0928 2120.3352 2096.9262 2112.2721 2148.1659 
14:45:12.983300 2046 2040 2126.8377 2130.219 2121.6357 2125.2771 2120.5953 2128.6584 2122.1559 2127.618 2138.022 2128.3983 2122.9362 2102.9085 2114.8731 2152.0674 
14:45:12.991453 2044 2040 2128.3983 2132.2998 2121.6357 2125.2771 2121.8958 2130.9993 2124.7569 2124.7569 2136.2013 2141.1432 2123.7165 2104.9893 2115.3933 2150.7669 
14:45:12.999385 2046 2040 2126.8377 2131.7796 2117.9943 2120.0751 2119.2948 2130.9993 2125.017 2118.2544 2132.82 2124.4968 2122.416 2102.1282 2112.7923 2148.9462 
14:45:13.006301 2046 2039 2124.2367 2128.9185 2117.4741 2117.214 2112.7923 2127.8781 2126.0574 2125.2771 2136.2013 2114.613 2121.1155 2102.3883 2112.012 2148.1659 
14:45:13.014292 2043 2040 2122.416 2126.0574 2116.1736 2114.8731 2109.411 2122.416 2121.3756 2123.7165 2133.3402 2123.9766 2116.1736 2102.3883 2107.5903 2150.2467 
14:45:13.022431 2044 2041 2125.7973 2129.9589 2116.4337 2116.6938 2115.3933 2124.4968 2119.0347 2109.9312 2126.8377 2124.4968 2116.6938 2104.209 2107.8504 2149.7265 
14:45:13.030375 2043 2040 2127.3579 2130.219 2117.4741 2117.214 2112.2721 2127.0978 2119.815 2106.81 2126.0574 2113.3125 2119.0347 2106.0297 2110.9716 2151.027 
14:45:13.038302 2043 2041 2133.3402 2133.3402 2123.7165 2123.4564 2115.6534 2132.2998 2125.017 2124.2367 2135.9412 2126.3175 2125.5372 2115.1332 2117.9943 2153.1078 
14:45:13.046290 2039 2039 2131.2594 2130.7392 2122.416 2122.6761 2119.5549 2129.9589 2121.8958 2125.2771 2135.421 2138.5422 2122.416 2114.613 2113.8327 2153.3679 
14:45:13.054741 2039 2040 2128.6584 2129.9589 2121.3756 2121.1155 2117.7342 2129.1786 2121.8958 2119.815 2131.7796 2130.219 2122.1559 2113.8327 2113.3125 2151.027 
14:45:13.062323 2040 2040 2128.6584 2130.7392 2122.6761 2122.1559 2114.8731 2130.4791 2123.4564 2121.1155 2127.618 2112.5322 2124.2367 2115.3933 2115.1332 2151.027 
14:45:13.069291 2041 2041 2130.4791 2133.6003 2123.9766 2126.8377 2125.7973 2133.3402 2126.0574 2123.4564 2129.4387 2120.3352 2124.4968 2116.4337 2114.0928 2152.5876 
14:45:13.077282 2041 2039 2124.4968 2126.8377 2119.0347 2120.5953 2123.9766 2126.0574 2121.3756 2117.9943 2127.618 2128.1382 2115.6534 2108.3706 2104.9893 2147.9058 
14:45:13.085714 2041 2039 2127.0978 2128.3983 2121.3756 2121.6357 2118.2544 2126.8377 2125.7973 2122.1559 2128.1382 2121.1155 2119.5549 2112.7923 2107.5903 2148.9462 
14:45:13.093323 2040 2040 2128.1382 2129.1786 2121.1155 2121.1155 2117.9943 2127.8781 2129.6988 2121.6357 2125.017 2113.0524 2121.8958 2117.214 2107.8504 2159.3502 
14:45:13.101295 2041 2039 2125.2771 2126.8377 2119.0347 2119.815 2118.7746 2125.2771 2124.4968 2116.1736 2125.017 2122.6761 2119.815 2116.9539 2104.209 2162.7315 
14:45:13.109285 2042 2039 2122.1559 2126.0574 2121.6357 2122.416 2110.9716 2122.1559 2114.8731 2110.4514 2122.9362 2120.8554 2118.7746 2116.6938 2101.8681 2158.5699 
14:45:13.117566 2043 2041 2125.2771 2131.7796 2130.4791 2131.2594 2110.9716 2124.7569 2115.9135 2112.012 2121.6357 2109.6711 2125.5372 2123.1963 2107.0701 2152.0674 
14:45:13.125303 2044 2040 2127.8781 2134.1205 2138.5422 2139.5826 2117.214 2123.7165 2117.7342 2114.8731 2125.017 2117.9943 2135.9412 2133.3402 2115.6534 2153.1078 
14:45:13.132288 2042 2042 2129.4387 2135.9412 2149.7265 2153.3679 2116.9539 2121.6357 2116.9539 2118.5145 2130.219 2128.3983 2149.4664 2144.7846 2124.7569 2154.1482 
14:45:13.140282 2043 2042 2134.6407 2144.0043 2168.1936 2173.1355 2114.0928 2124.2367 2117.7342 2120.3352 2132.5599 2121.3756 2165.3325 2160.1305 2134.1205 2156.229 
14:45:13.148593 2042 2043 2141.6634 2149.9866 2185.6203 2184.84 2114.8731 2126.5776 2117.7342 2118.2544 2130.4791 2119.0347 2174.6961 2176.2567 2139.5826 2157.7896 
14:45:13.156299 2043 2044 2151.8073 2156.229 2200.446 2198.1051 2119.815 2129.6988 2120.5953 2126.8377 2134.3806 2133.3402 2189.5218 2197.5849 2149.7265 2163.5118 
14:45:13.164285 2041 2046 2153.8881 2159.3502 2208.5091 2208.7692 2117.9943 2129.6988 2123.1963 2124.4968 2132.82 2132.2998 2199.4056 2207.2086 2152.5876 2166.3729 
14:45:13.172278 2041 2046 2152.5876 2157.0093 2211.3702 2208.5091 2117.9943 2131.2594 2125.5372 2111.7519 2126.0574 2121.1155 2197.845 2207.9889 2149.7265 2163.5118 
14:45:13.180368 2043 2045 2151.5472 2150.7669 2207.7288 2198.1051 2118.2544 2128.9185 2121.3756 2108.6307 2122.6761 2117.7342 2192.643 2204.3475 2147.9058 2165.5926 
14:45:13.188309 2042 2044 2154.6684 2155.1886 2204.3475 2194.9839 2122.9362 2130.4791 2122.9362 2122.416 2131.5195 2132.0397 2198.6253 2203.047 2155.1886 2166.3729 
14:45:13.196289 2042 2042 2143.7442 2148.9462 2188.7415 2181.9789 2118.7746 2126.5776 2118.7746 2117.9943 2126.8377 2130.7392 2187.1809 2189.2617 2145.3048 2160.3906 
14:45:13.203295 2041 2042 2135.421 2142.4437 2175.9966 2173.1355 2119.2948 2126.5776 2114.3529 2113.3125 2122.1559 2114.8731 2170.7946 2177.037 2133.6003 2155.9689 
14:45:13.211399 2042 2043 2137.2417 2146.0851 2171.3148 2171.0547 2121.8958 2127.0978 2111.7519 2118.7746 2125.5372 2112.5322 2166.8931 2169.4941 2132.2998 2158.0497 
14:45:13.219308 2040 2042 2144.7846 2152.3275 2169.7542 2169.234 2128.1382 2131.5195 2117.214 2123.4564 2130.9993 2134.3806 2168.7138 2166.1128 2135.1609 2156.7492 
14:45:13.227315 2040 2041 2138.022 2141.4033 2158.5699 2155.9689 2126.0574 2129.6988 2116.1736 2120.8554 2126.5776 2131.2594 2155.1886 2154.6684 2126.5776 2151.2871 
14:45:13.235585 2042 2040 2132.82 2138.022 2151.8073 2150.5068 2125.2771 2128.6584 2116.6938 2125.017 2129.1786 2119.815 2149.7265 2151.2871 2126.5776 2153.628 
14:45:13.243415 2042 2040 2132.5599 2140.1028 2145.825 2146.0851 2126.8377 2126.5776 2117.4741 2122.9362 2130.4791 2128.1382 2146.8654 2148.9462 2124.2367 2155.1886 
14:45:13.251357 2038 2039 2133.8604 2138.2821 2138.5422 2140.8831 2128.3983 2128.1382 2121.6357 2122.1559 2131.7796 2133.6003 2140.623 2142.7038 2118.5145 2153.1078 
14:45:13.259317 2040 2038 2132.5599 2132.5599 2133.3402 2135.6811 2124.4968 2129.1786 2127.0978 2126.5776 2134.3806 2125.017 2136.4614 2136.4614 2117.4741 2153.628 
14:45:13.266480 2041 2037 2134.1205 2129.9589 2133.0801 2132.0397 2123.4564 2130.7392 2134.3806 2132.82 2137.2417 2128.3983 2137.2417 2135.421 2118.2544 2156.7492 
14:45:13.274387 2041 2038 2132.82 2127.0978 2132.2998 2127.3579 2123.9766 2130.4791 2135.1609 2132.2998 2135.1609 2135.9412 2131.5195 2130.7392 2110.9716 2152.0674 
14:45:13.282326 2041 2038 2126.8377 2122.416 2127.8781 2120.5953 2122.1559 2127.618 2129.4387 2123.7165 2129.6988 2130.9993 2123.1963 2123.9766 2103.9489 2149.4664 
14:45:13.290312 2042 2039 2125.017 2122.6761 2124.7569 2117.4741 2121.3756 2125.2771 2125.7973 2120.5953 2128.3983 2122.9362 2125.2771 2124.4968 2107.0701 2150.7669 
14:45:13.298472 2044 2040 2123.9766 2123.1963 2122.6761 2115.3933 2122.9362 2124.4968 2125.017 2123.1963 2128.9185 2118.7746 2123.1963 2120.5953 2104.209 2151.2871 
14:45:13.306390 2044 2040 2124.2367 2121.1155 2122.1559 2115.3933 2127.8781 2126.8377 2126.8377 2125.2771 2131.7796 2123.1963 2116.6938 2116.1736 2099.7873 2148.1659 
14:45:13.314326 2042 2040 2123.1963 2115.3933 2116.4337 2109.6711 2123.4564 2121.8958 2121.3756 2118.2544 2128.6584 2125.017 2112.012 2113.3125 2095.1055 2149.7265 
14:45:13.322315 2042 2041 2126.0574 2118.7746 2114.8731 2109.1509 2118.2544 2119.0347 2120.0751 2119.0347 2128.3983 2123.9766 2116.4337 2114.0928 2097.7065 2150.7669 
14:45:13.329452 2042 2041 2124.4968 2117.9943 2113.0524 2106.5499 2117.9943 2118.2544 2122.9362 2123.9766 2128.9185 2121.8958 2114.613 2110.7115 2096.406 2146.8654 
14:45:13.337386 2045 2041 2124.7569 2115.3933 2111.4918 2106.2898 2127.0978 2122.416 2130.4791 2131.5195 2133.6003 2129.6988 2113.3125 2111.7519 2097.7065 2143.7442 
14:45:13.345320 2044 2039 2117.9943 2109.1509 2103.6888 2100.3075 2120.8554 2118.2544 2126.0574 2125.7973 2128.9185 2120.8554 2108.1105 2105.2494 2094.0651 2143.224 
14:45:13.353312 2045 2038 2112.012 2108.6307 2099.2671 2098.4868 2112.7923 2117.7342 2121.6357 2122.9362 2128.1382 2112.7923 2107.5903 2099.5272 2093.5449 2143.224 
14:45:13.362394 2044 2037 2108.6307 2107.3302 2097.1863 2096.406 2113.5726 2119.815 2119.2948 2123.9766 2128.6584 2120.0751 2105.7696 2096.1459 2090.1636 2142.9639 
14:45:13.369361 2046 2038 2113.8327 2111.7519 2101.3479 2101.0878 2123.9766 2124.2367 2121.8958 2123.4564 2128.9185 2125.7973 2108.1105 2101.608 2092.7646 2145.0447 
14:45:13.377314 2045 2039 2114.3529 2112.5322 2103.1686 2102.9085 2125.2771 2122.9362 2120.3352 2117.214 2125.2771 2115.6534 2108.3706 2103.6888 2095.6257 2145.0447 
14:45:13.385308 2045 2041 2112.7923 2110.1913 2101.608 2102.3883 2124.2367 2123.9766 2122.6761 2117.4741 2126.5776 2119.2948 2107.5903 2102.3883 2093.5449 2143.4841 
14:45:13.393408 2044 2041 2110.1913 2109.6711 2099.007 2101.0878 2125.017 2122.6761 2120.8554 2116.9539 2127.0978 2128.9185 2103.4287 2097.9666 2087.8227 2141.6634 
14:45:13.400359 2044 2041 2113.5726 2117.214 2103.9489 2107.5903 2129.6988 2123.9766 2120.0751 2118.5145 2128.1382 2127.8781 2106.5499 2102.1282 2093.2848 2142.9639 
14:45:13.408305 2045 2043 2114.3529 2119.2948 2106.2898 2109.1509 2128.1382 2123.9766 2120.3352 2121.6357 2127.8781 2121.6357 2109.6711 2104.4691 2096.1459 2142.9639 
14:45:13.416308 2045 2044 2113.3125 2116.1736 2103.1686 2104.9893 2122.9362 2120.0751 2119.5549 2118.7746 2124.7569 2114.8731 2108.6307 2101.0878 2091.4641 2143.224 
14:45:13.424868 2046 2041 2119.815 2120.3352 2106.81 2109.411 2124.4968 2121.6357 2121.8958 2121.1155 2127.0978 2117.7342 2115.1332 2107.3302 2097.4464 2144.5245 
14:45:13.432338 2046 2040 2126.8377 2126.0574 2113.8327 2114.3529 2128.3983 2126.5776 2127.0978 2130.9993 2134.1205 2131.5195 2123.1963 2117.214 2107.0701 2148.1659 
14:45:13.440309 2045 2041 2123.9766 2123.9766 2112.2721 2111.7519 2129.1786 2124.7569 2128.3983 2130.9993 2134.1205 2133.0801 2121.1155 2116.4337 2104.4691 2147.6457 
14:45:13.447316 2044 2039 2117.9943 2117.9943 2107.8504 2106.81 2126.3175 2119.2948 2125.5372 2125.017 2128.6584 2119.5549 2113.8327 2108.6307 2096.406 2146.3452 
14:45:13.455840 2046 2039 2125.017 2122.416 2113.8327 2113.8327 2126.5776 2124.2367 2127.3579 2133.0801 2133.6003 2125.2771 2119.0347 2113.8327 2102.9085 2146.3452 
14:45:13.463342 2046 2038 2126.8377 2125.017 2115.9135 2116.6938 2123.4564 2125.2771 2123.9766 2132.2998 2133.8604 2129.4387 2119.0347 2114.3529 2102.6484 2146.8654 
14:45:13.471314 2046 2037 2123.1963 2126.5776 2114.0928 2115.3933 2126.0574 2124.2367 2122.9362 2126.0574 2130.4791 2120.0751 2115.6534 2110.1913 2099.2671 2144.5245 
14:45:13.479314 2046 2038 2117.9943 2121.8958 2108.3706 2108.6307 2122.9362 2121.1155 2120.3352 2120.8554 2125.2771 2116.6938 2110.4514 2103.4287 2093.805 2142.1836 
14:45:13.487674 2045 2038 2118.5145 2121.3756 2108.3706 2109.1509 2122.416 2122.9362 2121.6357 2124.2367 2130.9993 2134.3806 2114.613 2106.0297 2097.4464 2143.224 
14:45:13.495373 2045 2037 2117.7342 2121.6357 2111.2317 2112.012 2124.7569 2122.1559 2122.6761 2124.4968 2134.1205 2137.2417 2118.5145 2110.1913 2102.9085 2146.8654 
14:45:13.503333 2046 2040 2121.8958 2127.618 2115.9135 2119.0347 2132.82 2127.0978 2130.9993 2130.219 2136.4614 2134.6407 2123.9766 2115.6534 2110.1913 2147.3856 
14:45:13.511310 2044 2039 2121.1155 2124.7569 2111.7519 2115.1332 2130.7392 2124.7569 2130.4791 2129.6988 2133.0801 2134.6407 2121.3756 2112.5322 2107.8504 2144.5245 
14:45:13.519417 2044 2040 2121.6357 2122.416 2110.9716 2114.0928 2129.6988 2123.7165 2128.3983 2128.1382 2132.0397 2133.3402 2120.5953 2112.2721 2105.2494 2145.0447 
14:45:13.526309 2045 2041 2122.1559 2122.416 2112.2721 2115.6534 2126.5776 2122.9362 2126.5776 2126.8377 2128.1382 2127.3579 2117.7342 2112.012 2101.8681 2146.0851 
14:45:13.534299 2045 2040 2126.0574 2126.0574 2114.3529 2118.7746 2124.2367 2124.2367 2126.8377 2127.0978 2126.0574 2120.3352 2116.9539 2113.0524 2100.8277 2146.0851 
14:45:13.542317 2044 2042 2126.8377 2127.618 2114.613 2117.4741 2125.2771 2125.2771 2125.017 2125.2771 2125.7973 2114.613 2116.1736 2112.7923 2099.7873 2144.7846 
14:45:13.550395 2044 2042 2126.3175 2128.9185 2114.8731 2116.1736 2129.4387 2127.8781 2125.2771 2129.1786 2129.1786 2127.3579 2115.6534 2114.613 2100.3075 2146.8654 
14:45:13.558307 2044 2041 2123.4564 2126.3175 2111.4918 2113.0524 2130.4791 2126.5776 2125.017 2133.3402 2128.6584 2134.1205 2111.2317 2111.4918 2098.4868 2146.0851 
14:45:13.566303 2044 2040 2121.1155 2121.8958 2108.3706 2109.1509 2127.8781 2122.9362 2124.7569 2126.3175 2123.1963 2117.214 2107.0701 2108.6307 2095.1055 2146.3452 
14:45:13.574277 2045 2041 2122.416 2120.8554 2110.4514 2108.3706 2123.7165 2121.6357 2127.8781 2124.2367 2123.9766 2115.6534 2108.1105 2111.4918 2095.8858 2145.5649 
14:45:13.581390 2044 2041 2123.1963 2117.7342 2108.1105 2105.7696 2119.0347 2121.3756 2128.9185 2133.0801 2129.9589 2130.4791 2107.5903 2109.9312 2095.8858 2146.0851 
14:45:13.589325 2042 2042 2126.3175 2116.4337 2106.5499 2106.5499 2122.416 2124.4968 2127.8781 2135.1609 2131.7796 2122.416 2110.1913 2109.6711 2098.4868 2147.3856 
14:45:13.597309 2041 2041 2126.0574 2115.6534 2107.8504 2106.81 2127.3579 2125.5372 2125.017 2120.3352 2123.7165 2106.5499 2110.7115 2109.6711 2096.9262 2148.426 
14:45:13.605332 2042 2041 2129.1786 2119.815 2114.3529 2112.012 2134.6407 2129.6988 2129.1786 2122.1559 2127.3579 2126.5776 2114.8731 2115.1332 2100.8277 2148.1659 
14:45:13.613456 2044 2041 2132.2998 2122.1559 2119.2948 2114.8731 2135.421 2129.4387 2130.4791 2134.1205 2134.3806 2141.1432 2118.7746 2120.0751 2105.2494 2150.5068 
14:45:13.621313 2043 2041 2134.6407 2127.3579 2122.6761 2119.5549 2132.82 2129.6988 2127.3579 2138.5422 2137.5018 2134.6407 2126.0574 2127.3579 2113.5726 2152.8477 
14:45:13.629302 2041 2041 2128.1382 2125.2771 2116.4337 2115.9135 2125.5372 2125.7973 2118.5145 2129.1786 2129.4387 2125.017 2122.416 2120.8554 2109.6711 2149.7265 
14:45:13.637401 2041 2040 2127.3579 2126.0574 2115.9135 2116.4337 2133.0801 2129.4387 2121.8958 2131.5195 2129.1786 2122.1559 2120.5953 2117.7342 2105.7696 2147.3856 
14:45:13.645388 2040 2039 2128.1382 2124.7569 2117.214 2115.3933 2135.6811 2127.618 2124.2367 2136.2013 2130.9993 2118.5145 2121.1155 2120.8554 2105.7696 2148.9462 
14:45:13.653313 2040 2040 2128.1382 2125.017 2116.4337 2113.5726 2130.7392 2124.7569 2121.6357 2134.1205 2130.219 2128.1382 2120.8554 2122.416 2106.81 2146.6053 
14:45:13.660297 2042 2039 2120.8554 2118.5145 2110.1913 2105.2494 2125.2771 2121.3756 2116.1736 2125.2771 2125.7973 2128.1382 2110.7115 2111.7519 2096.6661 2140.8831 
14:45:13.668376 2041 2041 2119.5549 2117.4741 2109.6711 2105.5095 2130.7392 2124.7569 2122.9362 2129.4387 2130.9993 2121.8958 2111.7519 2110.9716 2096.9262 2143.224 
14:45:13.676388 2041 2041 2119.5549 2116.9539 2107.8504 2107.0701 2130.4791 2125.2771 2129.6988 2132.5599 2130.9993 2122.6761 2114.3529 2114.0928 2099.7873 2143.4841 
14:45:13.684314 2041 2041 2119.2948 2115.9135 2106.2898 2106.0297 2126.3175 2122.416 2127.0978 2126.5776 2124.7569 2123.1963 2111.2317 2110.4514 2096.1459 2139.3225 
14:45:13.692298 2043 2042 2118.7746 2116.6938 2108.1105 2107.5903 2128.3983 2120.5953 2122.9362 2123.7165 2125.017 2117.4741 2111.4918 2106.2898 2094.0651 2139.8427 
14:45:13.700460 2044 2042 2120.5953 2119.5549 2111.2317 2112.5322 2134.3806 2123.4564 2126.3175 2129.4387 2130.4791 2117.9943 2116.6938 2111.4918 2099.7873 2145.0447 
14:45:13.708384 2044 2041 2121.1155 2115.6534 2111.2317 2107.8504 2130.219 2121.6357 2123.9766 2132.0397 2130.219 2124.4968 2115.6534 2115.3933 2100.5676 2141.9235 
14:45:13.716311 2045 2041 2122.9362 2113.8327 2110.4514 2104.7292 2125.017 2121.6357 2120.8554 2131.7796 2131.7796 2135.6811 2114.613 2114.8731 2099.7873 2141.9235 
14:45:13.723327 2044 2040 2128.3983 2122.9362 2115.3933 2114.0928 2132.5599 2128.3983 2126.5776 2136.2013 2136.4614 2142.1836 2121.8958 2120.8554 2107.0701 2146.3452 
14:45:13.731476 2044 2040 2131.2594 2129.1786 2120.3352 2119.5549 2139.3225 2128.9185 2127.0978 2133.6003 2131.2594 2130.9993 2123.9766 2124.4968 2107.5903 2148.426 
14:45:13.747366 2044 2040 2132.82 2128.9185 2122.416 2117.9943 2139.5826 2128.9185 2126.8377 2134.9008 2132.0397 2135.1609 2123.4564 2122.9362 2107.8504 2147.3856 
14:45:13.755334 2044 2042 2130.7392 2128.1382 2118.7746 2117.9943 2137.5018 2129.6988 2126.8377 2132.5599 2129.4387 2123.7165 2121.6357 2120.8554 2105.5095 2146.3452 
14:45:13.764254 2044 2040 2126.8377 2125.017 2114.3529 2113.8327 2133.0801 2125.2771 2124.7569 2123.9766 2122.9362 2113.0524 2116.4337 2115.1332 2096.9262 2144.5245 
14:45:13.771377 2043 2040 2128.1382 2127.3579 2115.6534 2116.9539 2137.5018 2128.6584 2129.4387 2125.5372 2126.5776 2127.0978 2118.5145 2114.613 2098.2267 2144.0043 
14:45:13.779310 2043 2040 2125.7973 2125.2771 2113.5726 2117.214 2137.7619 2126.5776 2126.8377 2125.2771 2126.5776 2133.8604 2116.1736 2111.4918 2098.2267 2143.4841 
14:45:13.786298 2042 2039 2123.1963 2124.7569 2110.4514 2117.4741 2135.9412 2123.9766 2124.7569 2126.3175 2127.0978 2131.2594 2115.6534 2112.012 2098.7469 2142.7038 
14:45:13.794408 2043 2039 2114.613 2119.815 2105.2494 2112.5322 2132.0397 2120.3352 2123.7165 2123.9766 2125.5372 2124.2367 2112.2721 2105.2494 2094.0651 2141.1432 
14:45:13.802379 2043 2039 2114.613 2120.0751 2108.6307 2115.1332 2139.8427 2123.1963 2126.3175 2127.3579 2129.4387 2117.7342 2115.6534 2101.8681 2096.6661 2142.4437 
14:45:13.810305 2044 2040 2117.4741 2120.5953 2111.2317 2115.1332 2141.6634 2122.1559 2122.1559 2125.5372 2127.618 2111.7519 2116.1736 2102.1282 2097.4464 2142.1836 
14:45:13.818297 2043 2040 2118.2544 2121.8958 2110.9716 2115.1332 2139.5826 2123.1963 2119.815 2123.1963 2125.7973 2123.7165 2115.6534 2104.4691 2097.1863 2141.4033 
14:45:13.826856 2044 2040 2117.7342 2121.3756 2109.9312 2116.6938 2140.1028 2125.017 2117.9943 2123.4564 2125.017 2133.6003 2115.1332 2101.3479 2097.7065 2141.4033 
14:45:13.834338 2044 2041 2122.6761 2125.017 2114.613 2120.5953 2146.3452 2127.618 2119.5549 2125.017 2125.7973 2127.3579 2116.6938 2100.8277 2099.7873 2144.7846 
14:45:13.842302 2044 2041 2123.7165 2125.2771 2115.9135 2120.0751 2144.2644 2126.0574 2120.0751 2122.9362 2125.5372 2122.1559 2115.9135 2100.8277 2098.7469 2143.7442 
14:45:13.850295 2043 2039 2122.1559 2121.6357 2113.0524 2119.2948 2143.224 2123.9766 2119.5549 2122.9362 2127.0978 2123.9766 2116.6938 2101.3479 2100.3075 2142.7038 
14:45:13.857729 2044 2039 2124.7569 2123.4564 2114.8731 2121.6357 2159.3502 2124.7569 2119.815 2127.0978 2127.8781 2121.1155 2120.5953 2105.5095 2103.9489 2142.9639 
14:45:13.865353 2043 2039 2127.0978 2127.618 2118.2544 2121.3756 2178.5976 2127.3579 2121.6357 2124.7569 2125.017 2112.7923 2120.8554 2104.9893 2101.608 2144.5245 
14:45:13.873301 2043 2040 2125.7973 2126.8377 2115.9135 2120.3352 2188.2213 2131.2594 2124.4968 2124.7569 2127.618 2118.7746 2119.2948 2102.3883 2101.3479 2141.9235 
14:45:13.881294 2043 2041 2123.7165 2123.4564 2112.7923 2118.2544 2193.4233 2128.9185 2122.9362 2126.3175 2127.618 2130.219 2117.214 2101.0878 2101.0878 2142.7038 
14:45:13.889676 2043 2041 2130.4791 2130.4791 2120.8554 2124.2367 2207.7288 2132.0397 2124.7569 2128.9185 2128.3983 2134.3806 2123.4564 2108.1105 2104.9893 2145.825 
14:45:13.897357 2043 2041 2127.8781 2128.6584 2119.815 2121.8958 2208.249 2130.4791 2119.815 2122.6761 2125.5372 2123.1963 2120.3352 2105.5095 2101.3479 2144.7846 
14:45:13.905301 2043 2041 2123.1963 2125.017 2115.6534 2118.7746 2211.3702 2126.8377 2116.4337 2124.4968 2125.2771 2122.9362 2115.9135 2102.3883 2098.4868 2141.4033 
14:45:13.913291 2043 2040 2125.7973 2126.8377 2121.1155 2121.3756 2228.5368 2127.8781 2120.3352 2130.7392 2129.4387 2127.8781 2118.5145 2104.209 2100.8277 2144.2644 
14:45:13.920586 2043 2039 2133.3402 2133.3402 2128.3983 2127.618 2241.8019 2134.6407 2126.3175 2133.3402 2137.2417 2126.3175 2128.6584 2112.012 2110.9716 2148.426 
14:45:13.928296 2044 2038 2127.8781 2128.3983 2121.1155 2120.0751 2233.4787 2127.618 2120.0751 2126.0574 2130.9993 2120.5953 2124.4968 2109.411 2107.8504 2145.0447 
14:45:13.936284 2042 2040 2126.5776 2127.8781 2120.0751 2119.0347 2237.1201 2126.8377 2122.9362 2126.5776 2128.6584 2128.3983 2121.8958 2108.8908 2105.5095 2142.4437 
14:45:13.944280 2042 2039 2125.7973 2125.5372 2118.5145 2119.5549 2245.7034 2129.1786 2125.2771 2125.5372 2129.1786 2129.9589 2121.6357 2104.9893 2104.9893 2144.2644 
14:45:13.952363 2040 2040 2123.7165 2123.7165 2116.4337 2120.5953 2251.1655 2131.5195 2126.0574 2125.7973 2129.6988 2130.9993 2125.2771 2104.4691 2105.5095 2145.0447 
14:45:13.960290 2041 2041 2123.1963 2125.017 2119.5549 2122.416 2253.5064 2130.7392 2128.6584 2131.5195 2131.2594 2137.2417 2129.4387 2107.0701 2107.3302 2144.2644 
14:45:13.968276 2042 2039 2129.4387 2130.9993 2126.8377 2128.1382 2256.6276 2132.2998 2133.3402 2138.022 2135.1609 2141.1432 2133.6003 2110.7115 2114.0928 2147.6457 
14:45:13.976292 2042 2039 2127.618 2128.1382 2124.4968 2123.4564 2255.067 2127.618 2128.6584 2133.0801 2130.4791 2126.0574 2128.9185 2107.5903 2112.5322 2147.3856 
14:45:13.984373 2043 2040 2123.7165 2123.9766 2121.3756 2118.7746 2255.8473 2125.5372 2128.9185 2131.7796 2129.1786 2116.1736 2126.5776 2107.3302 2109.6711 2145.0447 
14:45:13.991306 2044 2039 2123.1963 2123.9766 2120.8554 2119.5549 2255.3271 2126.0574 2134.3806 2135.6811 2131.2594 2127.3579 2125.2771 2106.0297 2106.0297 2141.9235 
14:45:13.999294 2044 2040 2123.1963 2126.5776 2119.815 2120.8554 2255.067 2124.4968 2130.4791 2133.0801 2129.4387 2137.2417 2121.1155 2100.8277 2101.608 2142.4437 
14:45:14.007306 2043 2043 2123.7165 2129.6988 2121.8958 2121.8958 2263.3902 2125.2771 2124.7569 2130.7392 2131.5195 2133.0801 2121.1155 2101.8681 2103.1686 2142.4437 
14:45:14.015372 2042 2045 2124.2367 2126.8377 2120.8554 2120.3352 2265.7311 2125.5372 2125.2771 2134.6407 2133.6003 2125.017 2121.6357 2102.3883 2104.4691 2143.7442 
14:45:14.023315 2042 2046 2128.3983 2128.1382 2122.1559 2125.017 2263.1301 2128.1382 2128.3983 2138.2821 2130.9993 2129.6988 2125.5372 2105.2494 2106.0297 2144.5245 
14:45:14.031304 2042 2046 2130.7392 2131.2594 2126.5776 2130.9993 2265.471 2130.4791 2125.017 2129.9589 2125.7973 2127.618 2126.0574 2106.0297 2103.9489 2146.6053 
14:45:14.039415 2041 2047 2131.2594 2133.3402 2132.2998 2134.6407 2269.8927 2130.7392 2122.9362 2127.618 2125.7973 2118.7746 2127.8781 2110.7115 2106.2898 2147.3856 
14:45:14.047376 2042 2047 2130.7392 2132.0397 2136.4614 2138.5422 2261.8296 2124.4968 2120.3352 2127.8781 2120.5953 2113.8327 2135.1609 2117.214 2109.6711 2149.2063 
14:45:14.054311 2040 2045 2140.623 2142.1836 2153.3679 2161.1709 2263.6503 2129.9589 2124.7569 2131.2594 2121.6357 2129.1786 2155.1886 2134.6407 2120.5953 2151.027 
14:45:14.062296 2039 2043 2148.426 2149.2063 2174.1759 2181.9789 2264.6907 2135.1609 2128.3983 2131.5195 2122.416 2133.0801 2167.6734 2150.7669 2126.3175 2154.1482 
14:45:14.070370 2039 2040 2154.9285 2151.5472 2192.3829 2193.4233 2263.9104 2137.5018 2134.9008 2136.2013 2123.4564 2122.1559 2179.1178 2171.0547 2133.0801 2157.5295 
14:45:14.078374 2039 2040 2156.4891 2149.7265 2202.7869 2200.1859 2263.9104 2135.1609 2132.82 2132.0397 2120.8554 2119.0347 2189.0016 2187.7011 2138.022 2159.0901 
14:45:14.086311 2039 2041 2157.5295 2160.6507 2215.5318 2215.7919 2271.4533 2138.2821 2131.7796 2128.3983 2123.9766 2129.6988 2201.7465 2198.8854 2146.6053 2158.3098 
14:45:14.094299 2039 2039 2153.3679 2161.6911 2217.8727 2213.451 2265.471 2133.3402 2128.9185 2126.3175 2122.1559 2122.1559 2203.3071 2196.5445 2148.426 2157.5295 
14:45:14.102367 2039 2038 2158.3098 2158.3098 2218.3929 2205.9081 2262.3498 2132.82 2130.9993 2130.4791 2124.2367 2114.613 2203.3071 2199.6657 2151.2871 2161.1709 
14:45:14.110373 2039 2037 2160.6507 2159.0901 2220.4737 2211.1101 2265.7311 2134.3806 2129.1786 2127.8781 2123.9766 2117.9943 2205.1278 2202.0066 2149.9866 2162.2113 
14:45:14.118314 2040 2037 2158.0497 2158.5699 2219.6934 2218.3929 2268.5922 2136.4614 2127.618 2126.5776 2123.7165 2125.2771 2207.9889 2203.5672 2149.7265 2161.9512 
14:45:14.125295 2040 2036 2155.1886 2153.3679 2207.9889 2206.6884 2265.9912 2134.3806 2128.6584 2130.4791 2126.0574 2126.8377 2202.0066 2197.5849 2149.4664 2160.3906 
14:45:14.133417 2039 2034 2153.1078 2155.7088 2194.2036 2191.6026 2263.1301 2131.7796 2130.219 2132.82 2129.1786 2125.017 2188.7415 2179.8981 2142.1836 2158.5699 
14:45:14.141370 2041 2036 2148.6861 2157.0093 2183.0193 2180.9385 2263.3902 2131.7796 2129.1786 2132.2998 2128.6584 2124.4968 2173.9158 2159.3502 2125.2771 2154.9285 
14:45:14.149311 2042 2037 2145.5649 2148.1659 2173.9158 2169.7542 2269.8927 2134.6407 2130.9993 2134.1205 2128.1382 2123.9766 2162.4714 2150.5068 2109.1509 2154.4083 
14:45:14.157294 2044 2038 2145.3048 2143.4841 2166.3729 2161.1709 2273.5341 2135.9412 2133.3402 2138.8023 2130.219 2123.9766 2158.5699 2148.9462 2098.4868 2152.8477 
14:45:14.166349 2044 2038 2139.8427 2140.1028 2156.229 2151.8073 2267.0316 2131.5195 2130.219 2133.8604 2128.1382 2118.7746 2150.5068 2137.5018 2082.3606 2154.4083 
14:45:14.173348 2044 2040 2140.1028 2141.4033 2153.1078 2150.5068 2268.5922 2136.2013 2134.6407 2137.5018 2134.9008 2128.1382 2146.8654 2132.5599 2076.8985 2150.7669 
14:45:14.181351 2046 2040 2128.1382 2126.8377 2139.5826 2130.9993 2253.5064 2125.017 2122.416 2127.0978 2123.1963 2120.5953 2129.1786 2115.9135 2056.8708 2157.2694 
14:45:14.188297 2046 2039 2130.219 2128.3983 2136.9816 2128.3983 2258.4483 2129.9589 2127.0978 2133.6003 2126.8377 2120.0751 2130.4791 2117.214 2054.0097 2156.4891 
14:45:14.196608 2045 2038 2119.0347 2112.5322 2122.6761 2112.5322 2248.0443 2117.4741 2117.4741 2121.6357 2118.2544 2105.7696 2114.613 2102.6484 2036.8431 2157.7896 
14:45:14.204363 2045 2037 2121.3756 2113.8327 2121.6357 2113.3125 2243.3625 2117.9943 2117.9943 2116.4337 2115.6534 2109.9312 2114.0928 2102.3883 2032.9416 2158.5699 
14:45:14.212301 2046 2037 2132.82 2128.3983 2131.5195 2123.4564 2249.6049 2127.8781 2125.017 2123.7165 2122.416 2123.1963 2124.4968 2113.8327 2041.0047 2151.027 
14:45:14.220296 2047 2037 2144.7846 2143.224 2141.6634 2137.5018 2268.5922 2139.8427 2136.9816 2136.2013 2137.2417 2131.7796 2136.4614 2126.8377 2052.7092 2147.3856 
14:45:14.228830 2047 2039 2138.022 2133.6003 2135.1609 2130.9993 2263.1301 2133.0801 2128.9185 2130.219 2131.7796 2125.017 2129.4387 2120.0751 2043.8658 2148.426 
14:45:14.236330 2046 2038 2136.2013 2129.9589 2130.219 2124.2367 2254.0266 2129.1786 2120.0751 2128.1382 2130.219 2129.6988 2128.1382 2120.0751 2041.5249 2154.1482 
14:45:14.244301 2044 2040 2139.5826 2134.3806 2129.6988 2124.4968 2257.1478 2130.219 2119.0347 2133.8604 2137.5018 2136.2013 2133.6003 2127.3579 2049.588 2146.0851 
14:45:14.252298 2046 2040 2130.9993 2125.2771 2121.3756 2117.4741 2253.7665 2126.0574 2117.214 2126.0574 2130.9993 2124.2367 2123.7165 2117.214 2039.7042 2148.426 
14:45:14.259780 2042 2042 2126.3175 2123.1963 2119.2948 2116.9539 2252.466 2130.4791 2123.9766 2126.8377 2129.6988 2125.2771 2119.5549 2111.4918 2032.6815 2144.2644 
