H:M:S.f Gyro(x) Gyro(y) F3 FC5 AF3 F7 T7 P7 O1 O2 P8 T8 F8 AF4 FC6 F4
2171 2012 2138.8023 2150.7669 2174.6961 2090.9439 2142.7038 2116.6938 2129.9589 2125.017 2117.4741 2117.9943 2129.4387 2136.9816 2136.7215 2145.5649 
2174 2011 2131.2594 2141.9235 2165.0724 2083.1409 2112.7923 2107.8504 2130.219 2121.1155 2113.0524 2110.1913 2122.416 2130.7392 2130.219 2138.8023 
2175 2007 2123.9766 2134.9008 2157.2694 2075.8581 2098.4868 2096.1459 2121.6357 2111.7519 2105.7696 2102.1282 2109.6711 2121.1155 2119.0347 2134.1205 
2177 2005 2131.7796 2139.0624 2165.5926 2082.6207 2123.4564 2101.0878 2117.7342 2119.815 2114.613 2116.4337 2115.6534 2129.4387 2123.9766 2142.7038 
2181 2004 2154.4083 2160.6507 2185.3602 2104.209 2144.7846 2120.3352 2126.8377 2138.5422 2131.2594 2137.2417 2136.9816 2150.7669 2145.5649 2161.6911 
2183 2005 2162.9916 2174.1759 2193.4233 2114.3529 2133.8604 2126.8377 2133.6003 2140.623 2129.9589 2133.3402 2144.7846 2157.5295 2156.4891 2167.9335 
2187 2006 2158.83 2168.9739 2191.8627 2111.4918 2131.2594 2123.7165 2134.6407 2136.9816 2125.017 2120.5953 2145.0447 2157.0093 2156.229 2165.3325 
2190 2008 2161.1709 2166.3729 2191.8627 2113.5726 2147.6457 2127.3579 2139.0624 2142.9639 2134.3806 2134.6407 2147.6457 2158.5699 2155.9689 2167.1532 
2194 2010 2159.6103 2168.1936 2187.7011 2111.7519 2138.022 2122.9362 2137.5018 2141.1432 2135.421 2149.7265 2141.4033 2151.2871 2149.2063 2164.032 
2195 2010 2146.0851 2154.1482 2175.9966 2099.7873 2120.8554 2105.5095 2123.1963 2128.3983 2118.7746 2128.1382 2127.3579 2136.9816 2135.9412 2153.628 
2197 2010 2139.8427 2142.9639 2168.9739 2095.6257 2131.5195 2102.9085 2119.0347 2125.5372 2111.2317 2102.6484 2121.8958 2130.219 2131.7796 2151.5472 
2201 2010 2150.2467 2156.229 2174.1759 2101.0878 2130.9993 2116.6938 2131.5195 2133.0801 2117.7342 2114.3529 2126.8377 2133.6003 2137.5018 2159.8704 
2205 2009 2153.8881 2164.5522 2177.037 2102.9085 2116.4337 2115.9135 2134.1205 2134.6407 2118.7746 2130.9993 2127.3579 2135.421 2137.7619 2160.6507 
2207 2006 2149.4664 2159.0901 2175.2163 2107.5903 2134.1205 2114.0928 2129.9589 2132.82 2119.0347 2128.1382 2126.8377 2134.1205 2138.022 2156.229 
2209 2001 2145.3048 2153.3679 2171.0547 2106.5499 2145.5649 2116.6938 2132.0397 2133.0801 2122.416 2118.5145 2128.9185 2130.9993 2140.8831 2154.9285 
2211 1995 2140.1028 2148.1659 2164.2921 2096.9262 2120.8554 2107.0701 2127.618 2130.9993 2123.1963 2120.5953 2127.0978 2128.3983 2138.2821 2153.1078 
2211 1993 2139.8427 2147.3856 2165.5926 2100.0474 2116.6938 2100.8277 2122.9362 2130.219 2125.017 2133.3402 2129.4387 2131.5195 2138.2821 2153.3679 
2212 1988 2139.5826 2148.9462 2167.9335 2105.5095 2132.2998 2105.2494 2121.6357 2127.8781 2123.9766 2131.7796 2130.9993 2130.9993 2140.3629 2152.8477 
2212 1986 2143.224 2158.83 2169.234 2107.5903 2124.4968 2111.4918 2122.416 2129.4387 2123.1963 2121.1155 2132.5599 2132.0397 2144.5245 2153.8881 
2214 1988 2146.6053 2164.8123 2169.4941 2109.6711 2117.4741 2112.7923 2126.0574 2132.5599 2123.4564 2125.2771 2135.1609 2135.421 2146.0851 2154.4083 
2216 1987 2145.0447 2157.7896 2167.4133 2106.81 2138.5422 2115.9135 2132.0397 2133.6003 2120.8554 2135.421 2134.6407 2133.6003 2143.7442 2152.3275 
2218 1987 2138.5422 2150.5068 2160.6507 2099.7873 2137.7619 2112.7923 2133.3402 2130.9993 2115.1332 2123.1963 2124.7569 2124.4968 2135.421 2149.2063 
2221 1986 2133.8604 2149.7265 2154.9285 2099.007 2108.1105 2104.4691 2127.618 2125.5372 2112.012 2110.4514 2115.9135 2117.4741 2128.1382 2145.3048 
2222 1985 2130.4791 2142.1836 2151.8073 2096.1459 2107.0701 2103.6888 2127.3579 2125.2771 2111.2317 2115.9135 2110.9716 2111.4918 2122.6761 2140.3629 
2221 1982 2125.017 2133.8604 2146.0851 2088.3429 2117.214 2105.5095 2136.9816 2130.219 2110.1913 2110.9716 2105.2494 2103.1686 2115.6534 2136.7215 
2222 1979 2126.8377 2144.2644 2148.1659 2094.3252 2107.8504 2105.5095 2141.9235 2128.9185 2112.2721 2103.1686 2109.411 2107.0701 2116.4337 2138.2821 
2223 1970 2125.7973 2144.2644 2149.2063 2097.1863 2110.7115 2100.3075 2126.0574 2118.7746 2111.2317 2112.5322 2112.7923 2111.4918 2119.2948 2137.5018 
2222 1965 2126.8377 2135.6811 2150.5068 2093.0247 2132.2998 2105.2494 2118.2544 2126.0574 2118.2544 2124.2367 2115.6534 2112.7923 2124.2367 2140.8831 
2223 1958 2138.5422 2146.3452 2160.6507 2103.4287 2139.8427 2116.1736 2130.9993 2143.4841 2132.5599 2130.4791 2129.9589 2124.7569 2135.1609 2152.3275 
2224 1955 2131.7796 2146.0851 2155.1886 2103.6888 2121.8958 2104.209 2123.9766 2127.8781 2121.8958 2122.1559 2126.0574 2121.3756 2128.9185 2147.1255 
2224 1948 2122.6761 2141.9235 2145.825 2097.9666 2112.2721 2096.1459 2114.8731 2112.2721 2104.9893 2112.012 2112.5322 2109.6711 2120.0751 2139.0624 
2225 1945 2139.8427 2158.3098 2160.1305 2109.9312 2124.7569 2112.5322 2129.9589 2131.2594 2115.1332 2128.3983 2124.4968 2122.416 2133.3402 2151.027 
2229 1935 2147.1255 2157.7896 2165.0724 2110.1913 2129.4387 2113.0524 2138.2821 2142.4437 2126.5776 2143.7442 2132.2998 2130.9993 2137.2417 2156.4891 
2229 1938 2128.9185 2135.6811 2145.5649 2090.6838 2114.613 2094.8454 2130.4791 2127.8781 2114.0928 2116.1736 2109.6711 2113.5726 2117.9943 2143.4841 
2229 1972 2130.219 2141.9235 2146.3452 2095.3656 2109.9312 2102.1282 2134.3806 2129.1786 2110.1913 2099.007 2103.6888 2112.5322 2116.6938 2143.224 
2229 2000 2143.7442 2155.4487 2156.229 2105.5095 2121.1155 2116.4337 2146.8654 2145.3048 2122.9362 2121.1155 2116.4337 2128.9185 2126.5776 2153.3679 
2231 2014 2142.4437 2149.2063 2150.7669 2094.8454 2130.219 2111.7519 2146.8654 2151.2871 2132.82 2128.1382 2117.7342 2134.3806 2126.0574 2154.1482 
2235 1994 2137.5018 2145.3048 2147.9058 2090.1636 2126.5776 2102.9085 2139.3225 2146.0851 2132.5599 2115.3933 2115.9135 2137.2417 2126.3175 2151.2871 
2238 1975 2137.5018 2152.0674 2149.4664 2098.4868 2106.5499 2099.7873 2135.9412 2138.2821 2125.2771 2123.1963 2119.5549 2144.2644 2128.6584 2152.8477 
2242 1953 2144.5245 2159.8704 2153.1078 2106.81 2112.5322 2107.5903 2139.8427 2142.1836 2127.8781 2135.421 2130.7392 2154.4083 2138.8023 2161.431 
2245 1951 2142.9639 2154.4083 2152.5876 2103.9489 2140.3629 2105.5095 2132.0397 2140.1028 2127.8781 2118.5145 2134.6407 2153.628 2143.4841 2161.431 
2249 1964 2131.5195 2146.8654 2144.0043 2095.6257 2127.0978 2093.0247 2125.017 2127.618 2118.5145 2111.2317 2121.3756 2140.8831 2129.6988 2149.9866 
2248 1980 2128.9185 2146.8654 2135.9412 2087.8227 2098.2267 2089.1232 2134.1205 2125.7973 2114.613 2126.0574 2109.9312 2134.9008 2118.2544 2144.7846 
2248 2001 2126.3175 2137.7619 2132.0397 2079.7596 2108.6307 2087.8227 2131.7796 2122.1559 2107.3302 2117.9943 2109.9312 2134.9008 2118.7746 2142.7038 
2250 1998 2134.9008 2144.5245 2144.2644 2094.8454 2139.0624 2103.4287 2138.5422 2129.9589 2114.8731 2114.0928 2128.3983 2147.9058 2135.9412 2152.3275 
2250 1975 2151.5472 2167.1532 2157.5295 2114.0928 2141.6634 2117.4741 2157.2694 2155.7088 2142.7038 2137.5018 2142.4437 2162.2113 2151.5472 2167.1532 
2249 1965 2136.2013 2149.9866 2140.8831 2093.0247 2119.0347 2091.4641 2145.5649 2152.8477 2140.1028 2135.1609 2122.9362 2143.224 2132.0397 2154.9285 
2250 1965 2125.017 2135.1609 2130.4791 2078.9793 2112.5322 2081.0601 2136.4614 2134.6407 2116.6938 2116.4337 2112.7923 2127.618 2120.3352 2144.0043 
2253 1972 2148.6861 2159.8704 2150.2467 2100.8277 2120.5953 2104.7292 2150.7669 2139.8427 2117.7342 2134.3806 2135.1609 2146.0851 2143.7442 2162.9916 
2256 1980 2143.4841 2150.7669 2146.0851 2093.0247 2112.5322 2090.9439 2136.4614 2130.9993 2116.9539 2129.9589 2129.6988 2142.4437 2138.8023 2162.2113 
2262 1994 2125.017 2131.5195 2132.82 2077.9389 2107.8504 2073.7773 2118.7746 2118.7746 2114.8731 2101.0878 2112.012 2125.7973 2121.3756 2148.1659 
2266 1995 2144.5245 2155.7088 2149.4664 2096.6661 2118.5145 2098.4868 2139.0624 2144.2644 2133.6003 2125.2771 2126.8377 2138.8023 2137.7619 2161.9512 
2270 1991 2145.5649 2155.7088 2146.8654 2094.8454 2116.4337 2100.3075 2141.4033 2147.1255 2128.1382 2146.3452 2126.0574 2137.5018 2137.2417 2163.2517 
2270 1990 2119.2948 2124.4968 2125.5372 2072.4768 2114.8731 2080.8 2124.2367 2121.3756 2111.4918 2124.7569 2108.3706 2115.1332 2115.9135 2143.7442 
2269 1991 2121.8958 2126.3175 2130.9993 2075.598 2125.5372 2089.3833 2133.3402 2128.3983 2123.1963 2122.9362 2116.1736 2116.4337 2121.3756 2147.6457 
2268 1993 2133.8604 2142.9639 2141.1432 2083.1409 2109.1509 2097.9666 2140.3629 2136.2013 2120.8554 2132.82 2123.7165 2124.2367 2128.6584 2157.2694 
2266 1995 2135.1609 2147.6457 2142.9639 2086.5222 2099.007 2099.5272 2132.82 2122.6761 2105.7696 2123.1963 2117.9943 2123.9766 2126.5776 2154.6684 
2267 1993 2137.5018 2145.825 2145.3048 2091.7242 2125.5372 2107.5903 2135.421 2124.4968 2113.0524 2122.6761 2116.6938 2123.9766 2127.618 2155.7088 
2269 1990 2131.2594 2132.0397 2140.1028 2083.401 2129.4387 2105.2494 2140.623 2133.0801 2119.2948 2128.1382 2113.8327 2117.4741 2121.6357 2153.8881 
2271 1987 2125.7973 2126.8377 2137.2417 2074.0374 2100.0474 2099.007 2138.5422 2130.219 2113.5726 2129.4387 2115.6534 2114.8731 2119.0347 2150.7669 
2272 1989 2135.421 2138.2821 2144.2644 2080.0197 2104.7292 2105.2494 2134.1205 2136.2013 2122.1559 2136.4614 2129.1786 2124.2367 2130.219 2158.3098 
2274 1991 2140.623 2138.5422 2148.1659 2089.3833 2140.8831 2112.5322 2130.7392 2143.7442 2133.0801 2135.421 2133.0801 2130.219 2138.5422 2164.5522 
2271 1997 2136.2013 2134.6407 2149.9866 2092.5045 2131.5195 2112.012 2128.3983 2135.421 2125.5372 2129.6988 2131.2594 2128.6584 2136.4614 2160.9108 
2267 2004 2142.4437 2145.0447 2156.4891 2095.8858 2108.1105 2117.214 2132.5599 2134.3806 2122.6761 2142.4437 2141.6634 2133.8604 2140.3629 2163.2517 
2264 2004 2142.9639 2143.7442 2152.5876 2093.805 2122.1559 2121.1155 2132.82 2138.8023 2124.2367 2141.6634 2138.8023 2132.2998 2140.623 2165.5926 
2263 2000 2131.5195 2128.6584 2143.224 2085.4818 2126.0574 2114.613 2128.3983 2132.5599 2115.9135 2127.3579 2120.3352 2120.0751 2127.8781 2156.7492 
2260 1996 2131.5195 2130.7392 2144.7846 2085.7419 2110.4514 2116.1736 2134.1205 2129.6988 2113.0524 2136.2013 2123.1963 2119.815 2125.7973 2153.628 
2259 1988 2133.3402 2133.3402 2144.5245 2084.9616 2119.5549 2120.3352 2141.6634 2129.1786 2113.3125 2136.7215 2130.9993 2122.416 2129.1786 2154.1482 
2257 1985 2130.7392 2128.1382 2141.1432 2081.3202 2128.6584 2118.2544 2139.8427 2123.1963 2109.411 2115.3933 2126.5776 2120.8554 2128.1382 2152.8477 
2252 1988 2140.1028 2137.5018 2148.426 2089.3833 2113.8327 2120.3352 2135.6811 2125.7973 2114.8731 2119.815 2132.5599 2129.6988 2134.3806 2160.3906 
2249 1995 2148.1659 2145.5649 2156.229 2098.4868 2114.3529 2123.1963 2135.9412 2135.6811 2121.3756 2144.5245 2141.4033 2141.4033 2143.7442 2168.4537 
2243 2004 2144.2644 2140.3629 2154.9285 2093.5449 2127.3579 2120.0751 2138.022 2138.2821 2118.7746 2143.4841 2135.6811 2139.8427 2139.8427 2165.5926 
2240 2007 2143.4841 2139.8427 2152.0674 2089.9035 2125.7973 2120.8554 2138.5422 2136.9816 2123.1963 2127.8781 2133.0801 2137.7619 2135.6811 2161.6911 
2237 2008 2142.9639 2141.9235 2151.2871 2093.805 2119.5549 2120.8554 2134.6407 2136.9816 2130.7392 2128.1382 2136.4614 2139.0624 2138.022 2160.1305 
2231 2011 2134.1205 2137.5018 2146.3452 2088.603 2112.2721 2113.0524 2128.9185 2136.7215 2129.1786 2136.4614 2134.1205 2133.3402 2135.1609 2154.6684 
2229 2014 2129.4387 2132.5599 2140.623 2080.8 2110.9716 2111.2317 2128.6584 2136.7215 2128.3983 2139.0624 2134.6407 2129.6988 2133.0801 2151.8073 
2225 2016 2131.5195 2131.7796 2140.3629 2085.7419 2127.3579 2117.9943 2136.2013 2133.8604 2123.9766 2131.2594 2138.2821 2131.5195 2136.4614 2153.8881 
2224 2015 2130.4791 2136.4614 2139.0624 2090.1636 2127.618 2117.9943 2141.9235 2126.5776 2114.0928 2127.8781 2132.0397 2127.0978 2130.9993 2151.8073 
2219 2013 2127.0978 2136.4614 2133.6003 2080.5399 2107.8504 2107.0701 2134.1205 2122.1559 2114.0928 2132.82 2123.7165 2117.7342 2119.815 2146.0851 
2217 2012 2118.7746 2122.1559 2126.8377 2068.3152 2107.5903 2093.5449 2118.7746 2116.9539 2110.4514 2117.9943 2119.5549 2109.1509 2116.1736 2139.0624 
2213 2016 2117.214 2119.2948 2127.618 2072.7369 2110.9716 2094.0651 2119.2948 2116.9539 2102.9085 2107.0701 2119.2948 2108.6307 2120.8554 2139.5826 
2210 2017 2132.0397 2136.9816 2139.8427 2086.5222 2115.1332 2109.1509 2135.9412 2132.2998 2115.6534 2132.0397 2127.3579 2119.2948 2129.1786 2152.3275 
2205 2018 2138.022 2139.8427 2144.7846 2085.7419 2125.5372 2107.8504 2138.2821 2141.6634 2128.9185 2142.4437 2134.6407 2125.7973 2133.3402 2158.5699 
2204 2019 2132.2998 2132.5599 2140.623 2080.2798 2119.2948 2097.9666 2133.0801 2139.3225 2127.8781 2123.1963 2133.3402 2123.7165 2134.9008 2155.7088 
2198 2020 2130.7392 2132.5599 2137.5018 2079.2394 2103.9489 2095.1055 2135.421 2137.5018 2122.416 2123.1963 2130.7392 2121.8958 2136.9816 2154.4083 
2195 2020 2131.7796 2128.6584 2138.2821 2076.6384 2114.613 2093.0247 2134.9008 2136.4614 2120.3352 2136.9816 2134.9008 2122.6761 2137.2417 2154.6684 
2193 2020 2136.9816 2130.219 2142.7038 2077.4187 2123.1963 2096.1459 2133.8604 2140.623 2129.4387 2132.5599 2140.1028 2126.8377 2138.5422 2159.0901 
2190 2019 2145.3048 2145.0447 2148.9462 2086.2621 2111.4918 2100.8277 2135.1609 2143.7442 2136.7215 2127.618 2142.4437 2130.4791 2142.9639 2164.8123 
2188 2019 2138.5422 2141.9235 2142.4437 2083.9212 2116.6938 2092.2444 2127.0978 2130.219 2123.7165 2125.2771 2136.2013 2122.1559 2137.7619 2155.4487 
2186 2019 2127.3579 2128.3983 2130.7392 2070.396 2128.3983 2089.6434 2125.017 2121.3756 2109.6711 2121.1155 2128.9185 2112.012 2129.4387 2145.3048 
2186 2020 2130.7392 2129.9589 2129.9589 2071.4364 2121.8958 2100.3075 2134.9008 2131.2594 2112.5322 2127.0978 2126.8377 2110.4514 2127.8781 2149.7265 
2184 2022 2130.4791 2131.2594 2132.2998 2080.2798 2114.613 2094.0651 2131.5195 2129.9589 2114.0928 2127.3579 2125.2771 2107.8504 2123.4564 2148.9462 
2183 2022 2133.6003 2135.421 2139.3225 2087.5626 2123.1963 2090.6838 2128.3983 2125.5372 2119.0347 2130.7392 2132.0397 2114.613 2127.0978 2148.426 
2180 2033 2144.0043 2144.7846 2145.3048 2086.5222 2121.1155 2098.4868 2134.9008 2130.7392 2124.7569 2134.1205 2136.9816 2124.4968 2136.4614 2156.4891 
2179 2038 2132.5599 2130.4791 2133.3402 2070.1359 2103.9489 2084.7015 2126.3175 2124.4968 2113.3125 2116.9539 2126.0574 2113.5726 2129.4387 2151.5472 
2179 2046 2119.5549 2112.2721 2123.4564 2056.8708 2112.5322 2072.4768 2120.0751 2122.6761 2113.3125 2110.7115 2119.0347 2102.9085 2120.5953 2143.224 
2177 2051 2134.9008 2131.7796 2137.2417 2074.0374 2124.4968 2089.9035 2137.7619 2140.8831 2132.5599 2133.6003 2133.3402 2118.7746 2133.0801 2153.1078 
2177 2056 2152.0674 2151.2871 2152.3275 2094.3252 2121.1155 2106.81 2151.5472 2152.3275 2138.5422 2142.7038 2150.7669 2136.9816 2148.9462 2166.633 
2179 2055 2145.825 2140.3629 2146.8654 2084.4414 2125.5372 2097.9666 2142.9639 2147.3856 2133.0801 2138.5422 2154.4083 2133.8604 2152.3275 2164.5522 
2180 2055 2135.6811 2135.1609 2138.5422 2074.0374 2126.0574 2084.1813 2130.4791 2137.2417 2130.219 2142.1836 2148.1659 2123.7165 2145.825 2155.1886 
2183 2050 2137.2417 2144.0043 2142.1836 2083.6611 2115.1332 2086.5222 2124.7569 2130.9993 2126.0574 2128.1382 2142.9639 2121.6357 2139.8427 2153.8881 
2184 2048 2137.5018 2139.3225 2144.0043 2084.7015 2125.5372 2092.5045 2125.7973 2132.82 2123.9766 2121.8958 2144.2644 2121.1155 2140.8831 2155.9689 
2187 2045 2120.5953 2115.3933 2127.0978 2062.3329 2129.1786 2077.1586 2122.6761 2128.1382 2121.3756 2131.2594 2136.9816 2108.3706 2131.5195 2143.224 
2187 2043 2111.4918 2112.7923 2117.214 2057.1309 2103.1686 2067.5349 2120.5953 2118.2544 2116.1736 2125.2771 2127.618 2098.7469 2119.2948 2131.7796 
2186 2041 2135.1609 2143.4841 2136.9816 2084.4414 2114.0928 2095.8858 2139.0624 2133.3402 2124.2367 2129.6988 2142.7038 2116.9539 2137.5018 2150.2467 
2186 2043 2153.3679 2155.4487 2153.8881 2097.7065 2151.8073 2114.0928 2154.4083 2153.3679 2136.2013 2145.825 2159.0901 2135.1609 2156.4891 2166.633 
2187 2041 2138.5422 2134.1205 2140.623 2080.5399 2138.2821 2088.3429 2138.8023 2140.8831 2130.9993 2135.421 2146.6053 2123.7165 2143.7442 2154.6684 
2188 2042 2128.1382 2123.9766 2127.3579 2069.8758 2100.0474 2067.5349 2121.1155 2123.9766 2122.1559 2122.1559 2132.82 2109.6711 2131.7796 2145.825 
2190 2040 2139.3225 2135.9412 2135.1609 2077.9389 2102.6484 2079.7596 2127.0978 2134.1205 2130.7392 2132.82 2142.7038 2117.214 2140.3629 2154.9285 
2190 2038 2139.0624 2136.7215 2136.7215 2078.4591 2128.9185 2087.0424 2132.82 2140.3629 2134.6407 2132.5599 2146.8654 2120.0751 2140.623 2154.9285 
2191 2041 2130.4791 2136.9816 2132.5599 2078.7192 2133.8604 2082.6207 2130.219 2134.3806 2127.3579 2128.3983 2141.9235 2114.3529 2137.2417 2147.1255 
2190 2044 2130.4791 2138.8023 2133.3402 2082.6207 2124.2367 2081.0601 2129.1786 2135.1609 2129.1786 2133.8604 2144.2644 2113.0524 2141.6634 2145.5649 
2190 2047 2130.7392 2134.3806 2132.0397 2081.3202 2126.8377 2082.8808 2132.2998 2138.8023 2136.4614 2132.2998 2146.3452 2113.5726 2142.1836 2145.5649 
2191 2037 2135.9412 2142.4437 2136.4614 2087.5626 2137.7619 2092.2444 2145.3048 2145.0447 2139.3225 2139.8427 2153.3679 2121.3756 2148.6861 2151.2871 
2191 2032 2140.623 2147.1255 2140.623 2088.8631 2135.1609 2091.204 2150.2467 2149.9866 2135.9412 2147.9058 2156.229 2124.4968 2151.2871 2153.3679 
2190 2029 2130.4791 2130.4791 2131.2594 2075.3379 2122.6761 2070.9162 2134.6407 2136.2013 2127.618 2133.8604 2142.1836 2112.2721 2133.6003 2140.3629 
2190 2030 2124.4968 2122.6761 2126.8377 2072.997 2119.0347 2066.4945 2128.1382 2123.9766 2119.5549 2127.8781 2136.2013 2107.5903 2126.3175 2136.9816 
2191 2039 2137.7619 2141.6634 2134.6407 2083.9212 2121.8958 2078.9793 2141.1432 2142.9639 2126.0574 2135.1609 2150.7669 2119.5549 2143.7442 2153.3679 
2192 2043 2132.0397 2135.6811 2127.3579 2081.0601 2117.9943 2075.3379 2137.7619 2139.3225 2131.7796 2128.3983 2140.1028 2114.613 2132.5599 2147.6457 
2191 2046 2130.7392 2132.2998 2123.9766 2083.9212 2117.214 2075.3379 2133.3402 2136.9816 2133.0801 2136.2013 2136.7215 2110.7115 2127.8781 2145.3048 
2189 2048 2123.7165 2124.4968 2117.214 2076.8985 2126.5776 2067.0147 2126.0574 2134.3806 2123.9766 2125.5372 2133.3402 2103.1686 2124.7569 2138.8023 
2188 2048 2132.0397 2136.2013 2126.0574 2082.8808 2134.3806 2075.0778 2136.2013 2143.224 2132.82 2127.618 2143.4841 2112.7923 2134.9008 2146.3452 
2187 2049 2145.5649 2151.5472 2136.2013 2095.1055 2128.1382 2081.5803 2143.7442 2148.9462 2144.2644 2146.0851 2154.9285 2124.2367 2146.8654 2157.0093 
2186 2046 2136.2013 2139.3225 2126.5776 2087.3025 2121.3756 2064.4137 2124.4968 2133.6003 2129.1786 2137.2417 2149.7265 2115.3933 2140.623 2149.7265 
2185 2043 2130.7392 2135.1609 2123.7165 2084.9616 2123.9766 2062.593 2119.5549 2130.7392 2120.8554 2122.9362 2147.3856 2110.9716 2135.6811 2146.0851 
2186 2040 2144.2644 2153.3679 2135.9412 2101.0878 2138.022 2083.6611 2142.1836 2147.1255 2134.9008 2142.1836 2154.4083 2120.8554 2143.224 2154.4083 
2185 2040 2136.7215 2145.0447 2130.9993 2096.1459 2135.9412 2077.1586 2141.1432 2141.6634 2133.6003 2151.2871 2148.1659 2116.1736 2139.8427 2150.7669 
2186 2034 2120.5953 2126.5776 2120.3352 2080.2798 2115.1332 2060.5122 2125.2771 2126.5776 2121.6357 2129.1786 2139.0624 2106.81 2130.4791 2142.4437 
2188 2026 2126.5776 2135.421 2125.017 2087.0424 2117.9943 2069.6157 2133.0801 2131.2594 2119.5549 2123.1963 2144.5245 2110.4514 2133.8604 2146.0851 
2196 1997 2133.8604 2145.3048 2129.1786 2097.7065 2135.1609 2080.8 2145.0447 2138.8023 2117.4741 2138.8023 2145.825 2112.012 2134.6407 2148.426 
2198 1980 2133.0801 2140.623 2126.5776 2094.3252 2133.6003 2075.8581 2137.7619 2138.2821 2120.8554 2144.2644 2141.6634 2109.9312 2129.6988 2147.3856 
2195 2021 2129.9589 2137.7619 2123.9766 2090.1636 2122.416 2070.1359 2130.219 2135.6811 2127.3579 2128.9185 2139.8427 2107.5903 2128.6584 2145.825 
2190 2081 2138.022 2150.2467 2132.0397 2102.1282 2139.5826 2084.7015 2139.0624 2145.0447 2135.9412 2126.8377 2146.3452 2112.2721 2138.8023 2151.2871 
2188 2144 2142.7038 2156.229 2134.1205 2105.5095 2143.224 2088.3429 2145.0447 2154.6684 2143.4841 2144.5245 2149.4664 2115.3933 2143.7442 2155.7088 
2194 2122 2128.1382 2140.8831 2117.7342 2090.6838 2116.1736 2068.8354 2135.1609 2146.0851 2139.5826 2144.5245 2142.1836 2105.5095 2133.8604 2147.3856 
2201 2082 2114.3529 2126.5776 2107.5903 2083.9212 2114.3529 2058.6915 2122.1559 2129.9589 2127.3579 2126.8377 2135.6811 2096.406 2125.5372 2136.2013 
2210 2028 2110.9716 2126.0574 2108.3706 2084.7015 2130.7392 2061.0324 2122.1559 2120.5953 2116.6938 2112.5322 2127.618 2088.8631 2120.3352 2128.6584 
2212 2031 2120.5953 2143.4841 2120.0751 2094.5853 2129.1786 2072.997 2138.8023 2128.6584 2123.1963 2113.8327 2136.2013 2084.4414 2126.5776 2136.2013 
2214 2076 2139.0624 2168.9739 2142.9639 2118.2544 2131.2594 2089.3833 2148.1659 2140.3629 2136.7215 2121.6357 2159.0901 2088.3429 2144.7846 2154.9285 
2215 2109 2131.2594 2157.2694 2139.3225 2110.9716 2142.9639 2074.8177 2129.6988 2125.5372 2122.9362 2114.8731 2145.3048 2080.8 2136.7215 2147.9058 
2215 2113 2108.6307 2130.219 2113.0524 2082.1005 2129.1786 2050.8885 2119.0347 2107.8504 2102.3883 2113.5726 2114.0928 2071.6965 2111.7519 2127.618 
2217 2112 2131.7796 2157.7896 2129.9589 2105.7696 2118.7746 2077.1586 2146.3452 2133.0801 2121.1155 2125.7973 2137.2417 2103.9489 2133.0801 2145.5649 
2222 2106 2158.5699 2185.3602 2155.4487 2136.4614 2140.8831 2098.4868 2160.6507 2155.4487 2140.3629 2128.1382 2165.5926 2133.6003 2161.431 2166.3729 
2226 2099 2141.4033 2163.2517 2138.022 2117.7342 2151.027 2077.6788 2141.4033 2138.5422 2128.9185 2126.5776 2147.3856 2117.9943 2143.4841 2150.7669 
2236 2086 2132.82 2155.7088 2129.4387 2107.5903 2140.623 2074.5576 2136.9816 2135.1609 2131.5195 2130.4791 2140.623 2112.7923 2132.0397 2144.0043 
2238 2080 2143.224 2174.1759 2139.8427 2119.5549 2138.022 2086.2621 2147.9058 2147.6457 2141.9235 2127.3579 2151.5472 2126.5776 2143.7442 2154.1482 
2245 2073 2138.5422 2170.0143 2135.1609 2114.0928 2139.5826 2078.7192 2141.1432 2139.8427 2132.82 2127.3579 2143.224 2125.017 2140.8831 2149.9866 
2246 2071 2132.0397 2158.3098 2129.1786 2105.5095 2134.1205 2075.8581 2130.4791 2128.9185 2122.6761 2133.6003 2133.8604 2121.1155 2129.4387 2142.9639 
2248 2073 2131.2594 2157.5295 2126.8377 2105.5095 2130.7392 2081.3202 2132.82 2127.8781 2114.3529 2115.3933 2131.2594 2120.0751 2126.0574 2142.9639 
2249 2074 2123.9766 2148.9462 2115.9135 2094.8454 2127.3579 2074.8177 2130.9993 2122.9362 2106.2898 2099.2671 2120.8554 2110.1913 2121.3756 2137.7619 
2252 2071 2126.5776 2148.9462 2116.4337 2092.2444 2126.5776 2078.9793 2130.9993 2125.7973 2117.214 2120.0751 2122.6761 2111.4918 2122.1559 2139.0624 
2258 2058 2143.7442 2166.3729 2133.8604 2110.4514 2141.4033 2100.8277 2147.1255 2141.6634 2138.022 2144.0043 2142.4437 2129.4387 2134.9008 2153.8881 
2260 2050 2149.4664 2166.633 2136.7215 2118.5145 2153.8881 2105.5095 2153.8881 2145.825 2138.022 2134.6407 2148.9462 2134.6407 2142.4437 2158.83 
2266 2043 2136.9816 2151.2871 2123.9766 2105.5095 2136.4614 2087.8227 2139.0624 2134.9008 2121.6357 2108.6307 2135.6811 2121.3756 2136.2013 2147.1255 
2269 2045 2132.2998 2155.9689 2122.9362 2102.6484 2125.5372 2083.9212 2135.9412 2134.9008 2118.2544 2120.5953 2134.3806 2117.7342 2132.2998 2145.0447 
2275 2060 2144.5245 2167.9335 2134.1205 2116.4337 2149.4664 2098.4868 2146.0851 2149.4664 2133.6003 2154.6684 2151.027 2130.7392 2145.5649 2157.2694 
2278 2068 2147.6457 2161.431 2133.6003 2115.6534 2161.6911 2102.9085 2145.3048 2157.5295 2147.3856 2147.6457 2155.9689 2133.8604 2154.6684 2158.83 
2283 2081 2140.623 2159.3502 2128.3983 2110.4514 2152.8477 2096.1459 2139.3225 2155.7088 2148.1659 2129.6988 2154.1482 2129.4387 2151.8073 2152.3275 
2286 2082 2143.4841 2171.5749 2134.3806 2118.7746 2149.4664 2096.6661 2138.2821 2153.1078 2146.0851 2145.5649 2159.6103 2134.9008 2152.3275 2154.6684 
2290 2087 2148.426 2172.6153 2135.9412 2120.8554 2146.8654 2101.8681 2139.8427 2148.9462 2141.6634 2153.8881 2157.2694 2135.6811 2153.1078 2154.9285 
2299 2090 2136.9816 2153.628 2121.1155 2106.0297 2149.2063 2096.6661 2142.7038 2137.2417 2128.1382 2125.7973 2141.4033 2118.5145 2138.022 2140.623 
2301 2093 2122.1559 2144.7846 2110.9716 2095.6257 2140.623 2082.8808 2138.2821 2127.3579 2119.815 2109.9312 2131.5195 2104.7292 2123.7165 2128.3983 
2311 2097 2121.3756 2152.5876 2114.0928 2098.7469 2119.5549 2080.5399 2129.1786 2126.5776 2120.0751 2119.815 2129.9589 2103.1686 2123.9766 2128.9185 
2319 2097 2124.7569 2150.7669 2117.4741 2100.3075 2136.9816 2089.9035 2130.219 2129.6988 2122.6761 2121.8958 2132.82 2105.7696 2128.9185 2133.6003 
2322 2097 2116.9539 2135.6811 2108.3706 2090.9439 2151.2871 2078.7192 2125.5372 2126.3175 2119.0347 2112.7923 2130.4791 2099.7873 2123.9766 2128.6584 
2326 2096 2122.6761 2148.426 2113.0524 2098.7469 2131.2594 2076.3783 2125.5372 2134.1205 2122.1559 2125.2771 2134.6407 2102.3883 2128.1382 2132.0397 
2329 2094 2142.1836 2169.4941 2131.7796 2117.4741 2138.2821 2100.3075 2141.9235 2151.027 2136.2013 2148.426 2148.9462 2117.214 2145.3048 2148.6861 
2330 2095 2140.1028 2155.4487 2127.8781 2108.3706 2157.2694 2099.2671 2144.0043 2147.3856 2132.2998 2139.8427 2145.5649 2114.613 2143.4841 2148.6861 
2333 2098 2130.9993 2143.224 2116.6938 2095.8858 2141.4033 2082.8808 2134.1205 2139.8427 2121.6357 2124.4968 2137.7619 2104.7292 2134.1205 2139.8427 
2335 2099 2135.9412 2152.3275 2120.3352 2102.3883 2121.3756 2087.0424 2133.3402 2145.0447 2128.9185 2132.0397 2141.1432 2106.81 2135.9412 2141.9235 
2337 2095 2128.6584 2142.9639 2111.7519 2093.2848 2118.2544 2083.9212 2128.3983 2136.4614 2127.8781 2126.5776 2126.5776 2095.3656 2123.7165 2134.6407 
2337 2091 2114.8731 2126.5776 2099.5272 2080.0197 2123.4564 2070.9162 2119.0347 2122.1559 2111.7519 2113.0524 2109.9312 2080.8 2109.1509 2122.1559 
2336 2088 2118.7746 2129.9589 2107.3302 2086.002 2138.2821 2075.598 2119.0347 2125.7973 2113.5726 2124.2367 2123.4564 2090.6838 2121.1155 2128.3983 
2335 2084 2130.219 2144.0043 2117.7342 2095.3656 2133.8604 2086.002 2121.6357 2132.5599 2124.4968 2134.6407 2136.9816 2101.3479 2135.1609 2138.8023 
2334 2081 2138.2821 2154.9285 2119.2948 2101.3479 2127.0978 2094.3252 2130.219 2134.6407 2122.6761 2127.3579 2129.9589 2099.5272 2131.2594 2139.5826 
2329 2080 2133.0801 2144.7846 2115.1332 2096.6661 2134.1205 2092.2444 2133.0801 2133.6003 2118.2544 2129.6988 2125.2771 2096.406 2123.7165 2134.9008 
2326 2080 2111.4918 2120.8554 2099.2671 2079.7596 2119.815 2069.0955 2112.5322 2117.7342 2111.2317 2125.7973 2116.6938 2083.6611 2111.2317 2121.6357 
2321 2083 2116.6938 2134.9008 2103.4287 2090.6838 2122.9362 2078.199 2113.3125 2122.1559 2114.0928 2125.5372 2121.6357 2090.1636 2118.2544 2126.0574 
2319 2083 2144.0043 2162.9916 2128.3983 2116.1736 2144.5245 2108.6307 2140.1028 2151.027 2130.219 2140.8831 2146.8654 2119.5549 2148.1659 2148.426 
2317 2080 2139.0624 2148.426 2125.7973 2107.5903 2132.0397 2095.3656 2137.2417 2150.5068 2130.9993 2133.8604 2145.3048 2118.7746 2146.3452 2145.0447 
2317 2079 2127.8781 2138.5422 2114.613 2098.7469 2125.5372 2081.3202 2124.2367 2137.5018 2130.219 2125.2771 2131.7796 2108.1105 2130.9993 2134.6407 
2314 2081 2145.3048 2160.9108 2127.8781 2114.3529 2152.5876 2105.7696 2139.3225 2153.1078 2145.825 2148.9462 2145.825 2126.0574 2146.6053 2150.5068 
2313 2083 2148.6861 2157.2694 2130.219 2115.9135 2155.7088 2106.81 2139.5826 2157.0093 2145.0447 2156.4891 2151.5472 2130.4791 2153.3679 2154.9285 
2310 2081 2126.5776 2136.2013 2112.5322 2100.5676 2125.2771 2082.3606 2119.815 2133.3402 2125.2771 2132.0397 2130.9993 2108.1105 2130.4791 2135.421 
2308 2079 2118.7746 2141.4033 2106.0297 2097.7065 2113.0524 2082.1005 2119.0347 2124.4968 2115.1332 2118.2544 2119.2948 2098.2267 2118.2544 2126.8377 
2307 2080 2127.0978 2148.9462 2110.9716 2105.7696 2126.3175 2094.5853 2124.2367 2131.7796 2116.9539 2120.8554 2122.1559 2103.9489 2125.017 2132.0397 
2301 2078 2130.9993 2140.1028 2111.4918 2104.4691 2140.8831 2096.9262 2122.1559 2133.8604 2122.1559 2130.7392 2126.3175 2104.9893 2129.9589 2135.6811 
2298 2076 2129.4387 2140.8831 2111.4918 2100.8277 2141.6634 2096.406 2125.5372 2134.3806 2124.4968 2135.1609 2130.4791 2104.4691 2133.3402 2137.5018 
2291 2076 2125.017 2141.9235 2105.7696 2096.9262 2124.4968 2091.204 2125.017 2131.2594 2116.1736 2130.4791 2121.3756 2099.5272 2125.5372 2132.5599 
2287 2075 2118.2544 2127.0978 2096.406 2088.603 2117.9943 2084.9616 2116.9539 2122.416 2107.5903 2134.3806 2107.0701 2088.8631 2110.4514 2124.7569 
2281 2070 2123.1963 2128.9185 2103.1686 2093.5449 2128.6584 2094.5853 2122.416 2125.7973 2115.6534 2132.82 2116.6938 2094.0651 2118.5145 2130.4791 
2278 2069 2130.9993 2138.8023 2111.7519 2102.6484 2127.618 2099.7873 2127.8781 2133.8604 2123.1963 2114.8731 2126.8377 2105.7696 2130.7392 2137.2417 
2272 2067 2131.5195 2140.3629 2112.5322 2104.209 2120.0751 2097.7065 2123.1963 2134.6407 2122.1559 2118.7746 2121.6357 2106.5499 2127.0978 2135.9412 
2270 2069 2139.0624 2153.1078 2122.1559 2112.2721 2134.1205 2110.9716 2131.2594 2143.4841 2129.9589 2149.9866 2131.7796 2113.5726 2136.9816 2142.1836 
2264 2072 2138.2821 2148.9462 2121.3756 2112.012 2145.3048 2112.5322 2134.9008 2145.3048 2132.2998 2147.9058 2139.0624 2115.1332 2144.5245 2143.224 
2261 2074 2121.3756 2125.7973 2106.0297 2098.4868 2122.1559 2093.5449 2121.8958 2130.219 2117.9943 2122.1559 2121.8958 2100.3075 2126.3175 2130.219 
2255 2076 2123.1963 2132.2998 2110.1913 2104.7292 2120.3352 2097.9666 2120.3352 2126.3175 2113.8327 2131.5195 2119.815 2101.8681 2123.1963 2130.4791 
2251 2073 2137.2417 2147.9058 2121.1155 2115.1332 2147.6457 2115.9135 2133.0801 2136.7215 2125.5372 2150.7669 2133.8604 2114.613 2138.2821 2141.4033 
2246 2069 2121.6357 2125.5372 2103.1686 2094.8454 2128.3983 2099.7873 2126.8377 2128.9185 2122.6761 2134.1205 2120.0751 2099.007 2125.5372 2129.6988 
2239 2060 2102.6484 2106.5499 2087.8227 2081.3202 2101.608 2084.7015 2115.6534 2114.3529 2109.411 2115.6534 2103.9489 2081.8404 2108.6307 2114.613 
2235 2056 2120.3352 2129.4387 2106.0297 2099.2671 2123.1963 2105.5095 2128.9185 2126.8377 2111.7519 2128.9185 2122.1559 2100.3075 2126.5776 2130.4791 
2229 2051 2138.022 2143.4841 2121.8958 2110.9716 2142.4437 2117.214 2141.1432 2141.1432 2123.1963 2132.82 2138.022 2118.5145 2143.224 2146.0851 
2225 2050 2144.0043 2143.4841 2127.618 2118.5145 2146.3452 2121.6357 2145.3048 2147.3856 2134.9008 2142.9639 2141.9235 2124.4968 2144.7846 2148.426 
2217 2043 2151.5472 2148.6861 2133.8604 2125.5372 2158.5699 2131.5195 2146.6053 2155.7088 2129.4387 2168.7138 2146.8654 2130.9993 2151.027 2153.3679 
2213 2041 2149.7265 2150.2467 2132.0397 2117.9943 2145.5649 2125.7973 2142.4437 2156.4891 2120.8554 2157.0093 2147.1255 2131.2594 2157.2694 2156.4891 
2207 2036 2140.8831 2143.7442 2128.3983 2113.3125 2123.4564 2114.0928 2137.2417 2149.4664 2135.6811 2134.9008 2147.6457 2128.6584 2155.7088 2152.5876 
2203 2035 2140.1028 2137.2417 2129.6988 2115.9135 2135.421 2116.9539 2135.421 2145.825 2143.4841 2149.7265 2146.0851 2127.8781 2147.9058 2149.2063 
2200 2031 2141.1432 2136.4614 2126.5776 2111.2317 2139.5826 2117.9943 2131.5195 2142.4437 2128.1382 2150.2467 2138.8023 2124.4968 2145.3048 2148.426 
2198 2029 2125.7973 2124.7569 2110.7115 2096.6661 2117.4741 2100.3075 2119.5549 2128.3983 2116.4337 2118.2544 2125.5372 2112.2721 2138.5422 2137.2417 
2197 2019 2115.3933 2115.1332 2102.3883 2091.7242 2116.9539 2097.4464 2117.9943 2124.2367 2120.8554 2128.3983 2118.5145 2103.4287 2126.8377 2126.5776 
2195 2014 2128.9185 2128.1382 2113.8327 2102.6484 2139.5826 2122.416 2135.6811 2139.8427 2133.3402 2158.3098 2129.9589 2113.3125 2136.2013 2135.9412 
2195 2010 2134.9008 2134.6407 2120.8554 2107.3302 2136.4614 2122.9362 2140.3629 2142.1836 2129.9589 2138.022 2140.623 2121.6357 2149.2063 2142.7038 
2195 2003 2121.6357 2120.0751 2114.8731 2098.2267 2108.6307 2099.007 2124.2367 2128.1382 2108.1105 2122.6761 2136.9816 2117.9943 2142.7038 2133.0801 
2194 2000 2122.416 2121.1155 2115.6534 2098.2267 2117.4741 2102.6484 2121.6357 2128.3983 2107.0701 2139.5826 2132.2998 2117.214 2138.022 2131.7796 
2194 1989 2144.0043 2146.0851 2129.9589 2117.4741 2151.8073 2128.9185 2139.3225 2145.3048 2132.82 2148.9462 2143.224 2127.8781 2151.8073 2147.6457 
2192 1981 2159.8704 2160.3906 2144.5245 2134.1205 2153.628 2139.0624 2150.5068 2155.7088 2141.1432 2153.1078 2159.8704 2142.9639 2166.8931 2158.0497 
2190 1981 2148.9462 2146.0851 2137.5018 2125.2771 2132.82 2125.5372 2140.1028 2146.8654 2128.9185 2149.2063 2151.2871 2136.9816 2156.7492 2149.2063 
2189 2005 2126.3175 2124.2367 2118.5145 2104.7292 2129.9589 2107.5903 2122.6761 2132.5599 2121.1155 2132.5599 2128.3983 2115.3933 2136.7215 2136.2013 
2185 2049 2125.5372 2125.5372 2117.7342 2101.608 2130.4791 2104.7292 2120.5953 2129.6988 2119.815 2133.8604 2130.7392 2114.8731 2139.5826 2136.9816 
2187 2043 2133.8604 2134.6407 2124.7569 2109.411 2115.1332 2109.411 2123.1963 2131.2594 2122.6761 2139.8427 2142.9639 2124.2367 2148.9462 2138.8023 
2193 2002 2126.3175 2128.3983 2117.214 2106.81 2110.4514 2107.0701 2121.1155 2131.5195 2130.9993 2132.0397 2135.1609 2116.4337 2139.5826 2130.4791 
2193 1989 2120.3352 2125.2771 2112.7923 2106.0297 2124.4968 2110.7115 2128.9185 2136.4614 2135.421 2134.6407 2131.7796 2111.7519 2137.7619 2128.1382 
2191 1982 2121.3756 2130.9993 2117.214 2111.2317 2134.6407 2116.1736 2136.2013 2136.2013 2128.9185 2135.9412 2138.8023 2113.8327 2145.825 2131.7796 
2192 1981 2109.411 2123.7165 2108.6307 2101.608 2118.7746 2103.6888 2124.7569 2123.1963 2115.9135 2121.1155 2128.1382 2097.9666 2130.9993 2121.3756 
2192 1991 2101.0878 2114.3529 2101.608 2090.1636 2098.2267 2093.805 2117.7342 2117.7342 2106.81 2118.5145 2119.2948 2089.6434 2119.0347 2114.3529 
2189 2026 2105.5095 2112.2721 2104.209 2090.4237 2106.5499 2096.6661 2122.416 2119.815 2102.3883 2122.416 2124.2367 2099.5272 2126.8377 2120.0751 
2190 2036 2105.5095 2107.0701 2102.9085 2092.7646 2125.5372 2099.7873 2121.6357 2117.7342 2103.6888 2123.7165 2123.9766 2101.0878 2130.4791 2119.815 
2193 2020 2105.7696 2107.5903 2105.7696 2096.9262 2117.9943 2096.6661 2115.9135 2116.1736 2109.1509 2123.4564 2123.4564 2100.3075 2129.9589 2116.6938 
2195 2004 2113.5726 2117.4741 2113.8327 2103.4287 2104.4691 2095.3656 2113.5726 2117.214 2112.7923 2122.9362 2127.618 2107.3302 2131.7796 2122.1559 
2198 1978 2133.8604 2136.2013 2128.3983 2115.3933 2123.4564 2113.5726 2126.0574 2134.1205 2128.3983 2138.8023 2140.3629 2121.6357 2145.3048 2138.5422 
2197 1979 2152.0674 2151.2871 2144.0043 2127.3579 2135.9412 2129.9589 2141.1432 2159.3502 2149.2063 2152.0674 2158.83 2134.1205 2167.6734 2153.3679 
2199 1995 2146.0851 2144.0043 2142.7038 2126.3175 2123.1963 2119.0347 2132.82 2153.628 2140.8831 2137.5018 2159.3502 2129.4387 2167.9335 2152.3275 
2201 2006 2133.6003 2130.7392 2132.2998 2117.9943 2120.8554 2109.6711 2119.815 2134.1205 2126.8377 2130.9993 2144.7846 2117.4741 2152.0674 2143.4841 
2206 2020 2143.224 2141.6634 2139.3225 2123.9766 2130.7392 2126.0574 2130.7392 2139.8427 2130.4791 2151.027 2144.5245 2124.2367 2155.1886 2148.6861 
2209 2024 2147.1255 2147.1255 2142.7038 2126.3175 2125.5372 2129.6988 2139.5826 2139.8427 2120.0751 2151.8073 2144.2644 2127.618 2156.229 2150.2467 
2214 2026 2123.4564 2118.5145 2119.815 2103.6888 2111.4918 2109.6711 2128.1382 2117.9943 2101.608 2126.5776 2123.1963 2103.4287 2132.5599 2131.2594 
2220 2032 2120.0751 2109.1509 2115.6534 2098.2267 2119.2948 2117.214 2131.2594 2120.8554 2115.1332 2128.6584 2121.1155 2095.6257 2130.9993 2128.9185 
2223 2036 2134.3806 2126.0574 2131.2594 2114.8731 2128.1382 2133.6003 2142.7038 2135.421 2129.6988 2151.8073 2137.5018 2109.1509 2147.9058 2142.1836 
2228 2045 2119.815 2117.9943 2121.6357 2110.4514 2108.3706 2113.0524 2128.6584 2118.7746 2110.4514 2138.2821 2127.0978 2097.9666 2136.4614 2130.4791 
2230 2047 2102.1282 2100.5676 2105.2494 2096.9262 2096.9262 2099.7873 2114.8731 2103.9489 2097.9666 2108.6307 2107.0701 2081.3202 2120.8554 2114.613 
2234 2045 2119.2948 2112.5322 2118.7746 2106.2898 2131.5195 2126.3175 2126.5776 2121.3756 2115.1332 2131.7796 2120.3352 2099.2671 2135.6811 2128.6584 
2237 2040 2138.8023 2129.6988 2136.9816 2122.416 2156.7492 2139.0624 2133.6003 2137.7619 2128.9185 2160.6507 2144.7846 2126.8377 2153.628 2146.3452 
2242 2030 2130.9993 2124.2367 2130.9993 2120.3352 2130.9993 2119.815 2120.0751 2129.9589 2122.416 2140.623 2136.4614 2127.618 2145.3048 2139.5826 
2246 2032 2127.0978 2121.3756 2128.1382 2116.4337 2118.7746 2119.5549 2116.1736 2127.3579 2117.7342 2133.3402 2126.0574 2129.6988 2140.1028 2135.9412 
2251 2044 2145.0447 2133.8604 2144.2644 2126.5776 2135.6811 2140.623 2127.8781 2142.7038 2128.1382 2159.8704 2146.8654 2157.5295 2161.6911 2153.1078 
2257 2072 2146.6053 2140.1028 2140.623 2129.6988 2128.3983 2139.0624 2130.219 2143.224 2134.6407 2141.6634 2144.2644 2171.0547 2159.6103 2151.2871 
2264 2081 2123.4564 2115.1332 2120.8554 2108.3706 2129.4387 2124.7569 2126.0574 2129.6988 2117.7342 2143.7442 2127.618 2157.5295 2141.4033 2132.82 
2269 2087 2124.7569 2111.4918 2121.1155 2104.7292 2126.5776 2132.82 2131.7796 2129.4387 2113.0524 2153.8881 2130.4791 2159.3502 2142.9639 2135.1609 
2278 2094 2126.8377 2117.214 2120.0751 2107.3302 2113.0524 2139.3225 2133.8604 2130.7392 2119.815 2136.2013 2126.3175 2158.3098 2141.9235 2137.7619 
2281 2095 2106.81 2101.0878 2105.2494 2095.6257 2107.3302 2122.416 2124.2367 2117.7342 2112.2721 2113.5726 2110.1913 2142.9639 2127.0978 2123.1963 
2288 2092 2095.6257 2087.0424 2098.7469 2087.5626 2112.2721 2112.7923 2119.0347 2109.1509 2101.608 2121.8958 2107.3302 2133.8604 2120.5953 2116.6938 
2290 2091 2102.9085 2097.7065 2107.3302 2097.4464 2113.5726 2121.3756 2120.5953 2116.1736 2104.4691 2128.1382 2115.3933 2137.5018 2129.6988 2124.2367 
2291 2096 2112.2721 2113.3125 2118.5145 2109.6711 2114.0928 2130.219 2121.8958 2122.9362 2112.2721 2108.3706 2124.4968 2146.8654 2142.7038 2131.5195 
2293 2099 2119.815 2115.6534 2122.9362 2109.6711 2119.2948 2134.6407 2122.6761 2126.3175 2119.815 2107.3302 2134.9008 2153.628 2149.9866 2136.2013 
2295 2103 2123.9766 2110.4514 2121.8958 2107.0701 2129.4387 2134.9008 2121.6357 2127.618 2119.815 2115.1332 2138.5422 2151.2871 2151.5472 2138.022 
2297 2099 2135.421 2122.1559 2134.1205 2121.1155 2144.2644 2146.8654 2125.7973 2133.8604 2122.6761 2107.0701 2146.8654 2158.3098 2165.8527 2147.3856 
2300 2091 2148.426 2144.2644 2149.9866 2136.2013 2145.825 2160.3906 2132.5599 2144.7846 2135.6811 2108.6307 2159.6103 2170.7946 2179.1178 2158.5699 
2303 2087 2136.2013 2132.5599 2135.9412 2122.9362 2125.2771 2145.5649 2124.4968 2138.8023 2132.2998 2110.7115 2146.0851 2155.4487 2161.6911 2146.6053 
2304 2077 2116.1736 2103.9489 2115.6534 2104.209 2115.6534 2129.4387 2112.5322 2121.8958 2113.5726 2097.4464 2121.3756 2128.6584 2138.8023 2128.3983 
2305 2074 2116.9539 2103.9489 2115.1332 2103.9489 2125.5372 2137.2417 2115.6534 2123.4564 2112.5322 2091.9843 2120.5953 2124.7569 2142.1836 2129.6988 
2304 2072 2112.7923 2105.2494 2110.7115 2097.4464 2124.4968 2134.6407 2117.214 2127.0978 2116.6938 2093.2848 2122.1559 2121.8958 2144.5245 2128.6584 
2303 2072 2101.0878 2094.0651 2100.8277 2089.1232 2116.9539 2126.8377 2116.4337 2118.2544 2110.1913 2088.603 2110.7115 2109.6711 2130.7392 2117.9943 
2302 2069 2107.8504 2097.7065 2107.5903 2096.9262 2122.6761 2140.8831 2128.9185 2120.0751 2111.2317 2090.6838 2114.0928 2114.0928 2132.2998 2122.1559 
2302 2062 2107.5903 2093.2848 2108.8908 2093.5449 2117.9943 2138.5422 2130.219 2122.1559 2109.6711 2089.1232 2117.4741 2114.613 2138.5422 2123.7165 
2301 2063 2101.3479 2085.4818 2102.6484 2084.1813 2109.411 2126.3175 2121.6357 2117.4741 2104.4691 2091.4641 2112.012 2107.5903 2135.6811 2121.3756 
2300 2065 2113.3125 2098.2267 2112.7923 2093.2848 2123.7165 2136.9816 2127.618 2120.5953 2108.6307 2101.0878 2120.8554 2116.1736 2140.8831 2130.219 
2300 2064 2121.1155 2102.1282 2123.1963 2101.3479 2134.9008 2144.7846 2130.9993 2121.3756 2112.012 2093.2848 2131.5195 2122.1559 2148.9462 2135.9412 
2300 2063 2122.6761 2104.7292 2126.5776 2105.7696 2125.017 2143.7442 2127.0978 2124.7569 2117.7342 2100.3075 2133.3402 2122.6761 2154.1482 2138.2821 
2299 2062 2126.3175 2111.7519 2126.5776 2106.81 2122.9362 2140.623 2121.8958 2128.9185 2121.3756 2117.7342 2132.0397 2124.7569 2154.9285 2141.4033 
2299 2058 2120.8554 2101.8681 2121.1155 2098.4868 2130.4791 2132.2998 2110.7115 2120.8554 2113.0524 2104.209 2128.3983 2121.1155 2149.9866 2137.2417 
2300 2056 2126.5776 2108.6307 2128.3983 2108.1105 2133.6003 2144.0043 2114.8731 2123.7165 2117.214 2097.4464 2134.1205 2125.017 2156.7492 2141.4033 
2302 2055 2147.6457 2138.022 2145.825 2129.6988 2140.3629 2169.4941 2137.7619 2145.825 2132.5599 2118.7746 2150.7669 2140.8831 2176.7769 2157.7896 
2303 2053 2140.623 2127.3579 2137.5018 2118.2544 2144.2644 2157.2694 2135.421 2142.9639 2125.017 2115.3933 2147.3856 2136.9816 2172.3552 2154.4083 
2303 2055 2113.0524 2091.7242 2113.5726 2090.4237 2124.4968 2126.0574 2111.7519 2119.0347 2113.0524 2095.8858 2124.2367 2114.3529 2144.0043 2132.5599 
2304 2060 2115.3933 2102.1282 2115.1332 2094.3252 2104.4691 2134.3806 2115.6534 2122.416 2122.6761 2108.8908 2121.8958 2111.7519 2142.7038 2132.2998 
2304 2065 2126.0574 2118.2544 2123.9766 2107.5903 2122.416 2152.8477 2132.82 2133.0801 2124.7569 2117.214 2128.6584 2121.3756 2154.1482 2140.8831 
2303 2070 2119.815 2104.7292 2120.8554 2101.8681 2145.3048 2144.5245 2132.5599 2126.5776 2113.5726 2105.5095 2126.0574 2124.2367 2150.7669 2136.4614 
2304 2071 2111.4918 2094.0651 2113.3125 2087.5626 2126.3175 2129.1786 2123.7165 2116.9539 2106.5499 2095.6257 2121.6357 2119.815 2143.7442 2128.1382 
2302 2074 2106.5499 2095.3656 2105.5095 2082.8808 2100.8277 2126.5776 2119.815 2113.3125 2103.4287 2090.9439 2114.613 2110.7115 2138.022 2123.1963 
2302 2076 2111.2317 2101.8681 2111.2317 2094.8454 2120.5953 2138.022 2126.0574 2120.0751 2112.2721 2099.2671 2119.5549 2116.6938 2143.7442 2128.3983 
2301 2076 2129.1786 2120.0751 2130.9993 2115.6534 2141.6634 2151.8073 2134.6407 2135.421 2129.4387 2117.9943 2144.7846 2139.8427 2167.4133 2145.0447 
2300 2075 2137.5018 2131.2594 2138.022 2120.8554 2135.1609 2149.7265 2131.5195 2143.224 2137.2417 2127.8781 2156.4891 2148.9462 2176.5168 2152.3275 
2298 2073 2125.017 2114.0928 2126.0574 2104.9893 2131.7796 2133.8604 2119.0347 2133.8604 2128.3983 2119.5549 2143.4841 2136.4614 2164.5522 2142.4437 
2297 2071 2116.9539 2103.6888 2119.2948 2098.4868 2122.6761 2127.8781 2110.9716 2122.6761 2115.1332 2108.8908 2134.9008 2127.3579 2158.83 2135.6811 
2296 2068 2123.7165 2114.8731 2125.2771 2106.5499 2115.3933 2138.5422 2115.1332 2126.0574 2116.6938 2112.2721 2140.3629 2133.0801 2164.2921 2141.4033 
2297 2067 2131.2594 2121.8958 2133.0801 2113.3125 2130.219 2148.1659 2123.1963 2134.3806 2125.5372 2126.8377 2149.7265 2142.4437 2171.835 2147.6457 
2297 2064 2125.2771 2115.1332 2126.8377 2108.1105 2132.0397 2139.8427 2120.3352 2126.5776 2116.6938 2117.9943 2145.3048 2135.6811 2168.1936 2140.8831 
2298 2060 2110.9716 2101.3479 2109.9312 2093.5449 2117.214 2126.5776 2111.7519 2111.4918 2102.6484 2091.204 2125.017 2116.1736 2149.7265 2127.0978 
2300 2060 2110.1913 2098.7469 2107.3302 2089.3833 2119.0347 2132.5599 2116.1736 2112.012 2107.3302 2097.1863 2119.2948 2111.7519 2142.7038 2124.7569 
2303 2062 2113.3125 2105.7696 2111.7519 2093.5449 2120.5953 2140.1028 2124.2367 2115.9135 2108.6307 2103.9489 2122.9362 2116.1736 2146.6053 2125.2771 
2305 2064 2108.3706 2103.9489 2108.6307 2090.4237 2115.6534 2134.1205 2123.1963 2113.5726 2101.8681 2089.3833 2117.7342 2113.8327 2143.7442 2122.416 
2309 2061 2103.6888 2092.5045 2103.9489 2083.1409 2116.4337 2126.0574 2119.5549 2113.8327 2105.7696 2092.5045 2114.8731 2110.1913 2140.1028 2124.4968 
2313 2058 2108.1105 2093.5449 2106.81 2088.603 2119.0347 2128.3983 2120.3352 2116.1736 2110.9716 2106.0297 2118.2544 2110.4514 2143.4841 2128.3983 
2315 2055 2122.9362 2112.2721 2121.8958 2107.8504 2130.7392 2143.7442 2128.9185 2125.7973 2117.214 2112.012 2127.3579 2122.1559 2154.9285 2138.022 
2317 2056 2136.2013 2122.9362 2133.6003 2118.7746 2135.6811 2150.7669 2132.0397 2136.2013 2126.3175 2117.214 2137.7619 2134.1205 2166.633 2147.9058 
2321 2057 2133.3402 2114.8731 2128.3983 2112.2721 2126.8377 2137.5018 2118.7746 2132.5599 2122.1559 2117.4741 2138.2821 2128.9185 2165.3325 2144.5245 
2324 2059 2127.0978 2107.5903 2122.9362 2105.7696 2126.8377 2129.4387 2108.3706 2125.5372 2114.3529 2108.3706 2130.7392 2123.1963 2159.0901 2140.1028 
2325 2058 2135.9412 2114.3529 2129.9589 2107.3302 2129.1786 2139.0624 2117.214 2131.7796 2126.5776 2112.2721 2131.7796 2130.219 2162.4714 2147.9058 
2329 2057 2143.224 2120.5953 2134.6407 2108.3706 2119.2948 2142.7038 2125.5372 2137.2417 2134.9008 2121.1155 2139.0624 2135.1609 2167.6734 2151.8073 
2330 2058 2133.6003 2115.6534 2130.219 2108.8908 2121.6357 2136.2013 2119.815 2127.618 2120.0751 2112.2721 2135.1609 2127.618 2161.1709 2143.7442 
2332 2058 2124.4968 2106.5499 2122.1559 2102.6484 2122.416 2133.8604 2114.8731 2117.7342 2109.411 2095.1055 2121.6357 2115.3933 2149.9866 2136.9816 
2333 2061 2126.8377 2103.4287 2117.214 2094.3252 2108.3706 2136.4614 2120.8554 2119.815 2114.613 2096.6661 2116.9539 2109.9312 2148.6861 2137.2417 
2338 2069 2132.5599 2111.4918 2123.9766 2102.9085 2117.7342 2141.1432 2127.8781 2124.2367 2117.9943 2115.3933 2125.2771 2116.6938 2153.8881 2141.1432 
2342 2070 2128.6584 2110.7115 2125.7973 2107.3302 2133.3402 2139.0624 2125.7973 2120.0751 2114.0928 2106.81 2121.8958 2115.9135 2149.4664 2138.2821 
2349 2073 2120.0751 2099.007 2114.613 2095.6257 2122.9362 2132.82 2122.6761 2116.6938 2108.1105 2088.3429 2110.9716 2104.209 2142.9639 2130.4791 
2352 2074 2117.7342 2100.3075 2112.5322 2093.5449 2104.4691 2131.7796 2123.9766 2119.2948 2104.9893 2101.3479 2115.6534 2103.1686 2145.3048 2129.4387 
2360 2075 2120.3352 2108.6307 2120.5953 2103.9489 2108.6307 2132.0397 2122.6761 2121.8958 2111.7519 2116.4337 2123.7165 2110.7115 2149.9866 2134.1205 
2363 2074 2122.6761 2105.5095 2123.7165 2106.81 2126.0574 2133.3402 2119.0347 2126.0574 2122.1559 2107.3302 2123.4564 2113.8327 2153.1078 2137.5018 
2364 2070 2123.9766 2102.3883 2121.8958 2102.6484 2126.3175 2135.421 2119.0347 2130.219 2123.9766 2101.608 2126.8377 2114.8731 2156.7492 2138.022 
2366 2065 2123.9766 2104.7292 2123.4564 2100.5676 2109.411 2133.8604 2120.3352 2129.6988 2122.416 2114.3529 2130.219 2114.8731 2157.7896 2138.2821 
2367 2059 2122.416 2099.7873 2122.416 2097.1863 2101.8681 2130.9993 2119.0347 2129.1786 2124.7569 2121.6357 2124.4968 2109.9312 2155.1886 2137.7619 
2375 2041 2121.8958 2095.6257 2116.4337 2095.8858 2110.4514 2130.7392 2116.4337 2129.6988 2125.5372 2115.6534 2124.4968 2106.2898 2155.1886 2137.7619 
2379 2030 2122.6761 2098.2267 2115.1332 2096.9262 2118.5145 2130.219 2114.8731 2125.5372 2122.6761 2106.0297 2131.2594 2108.6307 2158.5699 2138.8023 
2388 2039 2123.1963 2098.2267 2117.214 2097.7065 2121.6357 2133.0801 2115.3933 2122.9362 2120.3352 2106.2898 2127.618 2107.0701 2156.7492 2137.2417 
2391 2077 2121.3756 2098.7469 2115.9135 2098.2267 2116.4337 2136.7215 2116.1736 2122.1559 2117.4741 2108.8908 2119.5549 2099.5272 2151.027 2132.82 
2389 2145 2117.9943 2097.4464 2112.2721 2094.5853 2108.8908 2132.5599 2114.613 2117.4741 2111.2317 2100.5676 2115.9135 2094.8454 2146.3452 2128.1382 
2391 2135 2111.4918 2084.7015 2105.5095 2084.7015 2114.0928 2124.2367 2112.7923 2112.5322 2105.5095 2093.805 2109.9312 2088.8631 2139.5826 2123.1963 
2405 2054 2104.9893 2074.2975 2097.1863 2076.1182 2104.4691 2119.2948 2113.3125 2108.6307 2107.5903 2103.1686 2104.4691 2081.0601 2135.1609 2119.5549 
2408 2022 2109.411 2085.4818 2099.7873 2083.6611 2081.3202 2119.815 2114.613 2109.1509 2112.7923 2110.4514 2108.6307 2082.1005 2140.1028 2120.8554 
2413 2020 2117.9943 2098.7469 2110.1913 2093.2848 2093.0247 2121.6357 2114.613 2115.1332 2115.6534 2108.1105 2114.3529 2084.4414 2145.825 2124.4968 
2413 2041 2120.3352 2097.4464 2117.9943 2093.805 2124.4968 2125.017 2114.613 2122.6761 2121.3756 2121.3756 2118.7746 2080.8 2149.7265 2130.9993 
2412 2084 2123.7165 2095.6257 2122.6761 2095.8858 2127.618 2129.4387 2116.1736 2129.6988 2126.8377 2142.9639 2122.9362 2082.3606 2154.1482 2138.022 
2409 2110 2130.4791 2100.5676 2124.2367 2100.5676 2119.2948 2132.82 2119.2948 2132.2998 2124.7569 2138.022 2122.1559 2090.1636 2157.0093 2140.8831 
2409 2119 2131.2594 2102.6484 2122.1559 2101.3479 2114.0928 2131.7796 2117.9943 2127.618 2121.3756 2116.4337 2118.2544 2094.0651 2157.0093 2138.2821 
2414 2111 2126.5776 2101.3479 2120.3352 2104.4691 2107.0701 2128.3983 2112.7923 2121.6357 2120.8554 2119.815 2114.8731 2090.1636 2151.5472 2132.0397 
2421 2097 2129.4387 2106.0297 2123.7165 2114.613 2112.5322 2130.7392 2113.8327 2121.1155 2122.6761 2133.0801 2115.9135 2087.5626 2147.9058 2132.0397 
2424 2090 2132.0397 2109.1509 2125.5372 2114.0928 2119.5549 2131.5195 2114.613 2119.0347 2121.6357 2122.416 2117.9943 2084.9616 2150.5068 2136.2013 
2425 2082 2124.2367 2102.3883 2118.7746 2102.9085 2116.9539 2127.3579 2112.5322 2113.0524 2110.9716 2108.1105 2113.0524 2075.8581 2148.1659 2131.2594 
2431 2077 2122.1559 2100.3075 2114.613 2098.4868 2119.815 2129.9589 2115.6534 2112.7923 2106.5499 2112.5322 2107.8504 2069.8758 2142.1836 2126.8377 
2433 2081 2128.9185 2106.2898 2118.7746 2100.8277 2124.7569 2136.4614 2121.6357 2116.6938 2115.3933 2119.815 2114.8731 2074.0374 2148.9462 2131.5195 
2436 2086 2127.8781 2108.3706 2119.0347 2103.4287 2124.4968 2134.9008 2122.1559 2115.3933 2114.613 2119.0347 2122.416 2077.1586 2154.4083 2132.82 
2437 2081 2119.5549 2103.4287 2112.7923 2103.6888 2127.3579 2128.1382 2112.5322 2110.7115 2106.5499 2122.6761 2119.5549 2074.0374 2148.1659 2127.618 
2439 2063 2120.5953 2103.6888 2112.2721 2105.5095 2134.3806 2129.1786 2104.209 2113.5726 2113.8327 2125.017 2119.815 2073.2571 2148.426 2127.3579 
2440 2055 2128.1382 2110.7115 2115.3933 2111.2317 2129.4387 2134.6407 2108.8908 2123.1963 2124.4968 2123.4564 2122.9362 2074.5576 2156.4891 2131.2594 
2441 2048 2132.5599 2115.6534 2114.8731 2116.1736 2119.0347 2135.6811 2115.6534 2128.3983 2125.2771 2125.2771 2124.7569 2074.8177 2159.0901 2135.1609 
2441 2050 2135.9412 2116.9539 2116.1736 2116.6938 2125.2771 2136.4614 2112.012 2131.2594 2126.8377 2131.7796 2129.6988 2076.1182 2158.3098 2138.5422 
2441 2057 2137.5018 2113.3125 2117.9943 2114.613 2138.022 2137.2417 2109.9312 2131.2594 2127.8781 2135.1609 2132.82 2075.3379 2159.3502 2138.022 
2437 2076 2137.5018 2109.1509 2115.3933 2113.3125 2132.0397 2134.1205 2111.7519 2123.9766 2120.5953 2126.0574 2129.9589 2074.0374 2161.431 2136.4614 
2437 2089 2137.7619 2111.2317 2115.6534 2113.5726 2131.2594 2132.82 2109.6711 2117.9943 2113.0524 2122.9362 2130.9993 2079.4995 2162.9916 2137.7619 
2438 2102 2138.5422 2117.214 2119.5549 2114.0928 2142.1836 2137.7619 2111.7519 2118.7746 2114.0928 2128.3983 2133.8604 2083.401 2161.1709 2138.8023 
2439 2102 2141.4033 2123.9766 2121.1155 2115.1332 2133.6003 2140.623 2115.9135 2117.4741 2119.0347 2127.618 2133.6003 2084.1813 2162.2113 2140.3629 
2443 2106 2138.022 2123.7165 2119.5549 2114.8731 2125.2771 2136.4614 2115.6534 2113.5726 2119.0347 2123.1963 2132.82 2090.4237 2163.5118 2140.1028 
2443 2113 2124.4968 2112.2721 2108.6307 2102.9085 2129.9589 2126.0574 2114.613 2108.8908 2110.7115 2116.9539 2123.4564 2088.603 2151.5472 2129.1786 
2445 2130 2115.1332 2105.2494 2099.7873 2093.2848 2130.219 2118.5145 2110.9716 2103.6888 2103.4287 2107.5903 2110.9716 2078.9793 2139.0624 2118.7746 
2447 2139 2120.8554 2112.012 2106.5499 2102.9085 2139.0624 2124.7569 2111.4918 2106.81 2107.8504 2107.0701 2113.0524 2086.002 2140.623 2122.416 
2447 2149 2129.6988 2121.1155 2115.3933 2109.1509 2143.7442 2129.9589 2113.0524 2119.5549 2120.3352 2131.5195 2121.8958 2102.9085 2148.6861 2129.9589 
2448 2149 2131.2594 2126.3175 2114.613 2108.1105 2130.9993 2125.2771 2107.0701 2130.219 2132.0397 2154.1482 2129.6988 2111.2317 2157.5295 2134.3806 
2449 2145 2131.2594 2128.1382 2115.3933 2114.8731 2131.7796 2126.5776 2106.5499 2136.9816 2137.7619 2146.6053 2137.5018 2115.9135 2166.1128 2139.0624 
2454 2130 2129.9589 2122.1559 2112.7923 2110.1913 2140.3629 2130.9993 2114.8731 2139.3225 2136.2013 2139.8427 2133.0801 2113.8327 2162.9916 2137.2417 
2456 2123 2130.4791 2120.5953 2107.5903 2102.3883 2139.5826 2133.3402 2115.6534 2134.9008 2131.5195 2155.9689 2125.2771 2109.9312 2155.9689 2133.3402 
2457 2111 2133.8604 2128.6584 2113.3125 2111.4918 2142.1836 2136.2013 2112.2721 2132.5599 2129.9589 2158.83 2131.2594 2116.1736 2161.1709 2136.7215 
2458 2107 2135.9412 2134.1205 2116.6938 2113.5726 2133.3402 2133.8604 2115.1332 2130.219 2126.3175 2137.2417 2133.3402 2118.5145 2165.0724 2139.8427 
2458 2100 2135.1609 2133.3402 2113.3125 2104.9893 2121.3756 2129.1786 2113.3125 2121.3756 2114.8731 2135.6811 2128.3983 2113.0524 2159.8704 2138.022 
2456 2097 2132.2998 2125.2771 2115.3933 2107.8504 2136.2013 2131.2594 2109.1509 2112.7923 2105.7696 2146.6053 2130.219 2113.5726 2156.7492 2136.7215 
2453 2098 2129.6988 2114.8731 2111.7519 2106.5499 2144.2644 2131.7796 2109.1509 2108.8908 2104.4691 2141.9235 2126.0574 2108.3706 2151.2871 2133.0801 
2450 2101 2128.6584 2113.8327 2104.209 2095.8858 2128.6584 2128.1382 2111.4918 2105.5095 2104.7292 2136.7215 2117.9943 2097.7065 2145.3048 2129.4387 
2445 2104 2129.6988 2119.2948 2109.6711 2099.007 2126.5776 2130.219 2113.5726 2105.5095 2105.7696 2137.2417 2124.4968 2101.0878 2150.5068 2131.5195 
2443 2105 2130.219 2120.5953 2116.4337 2107.8504 2134.1205 2133.3402 2115.3933 2113.5726 2112.2721 2137.7619 2132.0397 2107.8504 2157.5295 2134.9008 
2438 2104 2129.4387 2119.2948 2112.7923 2105.5095 2137.5018 2135.421 2119.5549 2124.7569 2123.1963 2141.9235 2130.219 2103.1686 2154.1482 2135.9412 
2431 2104 2129.6988 2122.1559 2111.2317 2104.7292 2145.5649 2137.5018 2120.8554 2130.7392 2128.9185 2146.3452 2128.3983 2097.1863 2152.0674 2136.2013 
2427 2103 2130.219 2125.017 2114.3529 2112.012 2143.224 2136.2013 2117.9943 2134.9008 2129.9589 2145.3048 2131.5195 2100.8277 2158.3098 2136.9816 
2418 2100 2132.0397 2125.5372 2116.1736 2116.9539 2133.3402 2135.9412 2116.6938 2141.4033 2135.6811 2149.9866 2136.4614 2107.8504 2162.7315 2139.5826 
2415 2099 2135.6811 2127.3579 2115.6534 2114.613 2133.3402 2137.5018 2117.7342 2144.0043 2141.9235 2159.3502 2136.7215 2107.8504 2161.1709 2142.7038 
2404 2096 2138.5422 2129.9589 2116.4337 2113.8327 2140.1028 2138.5422 2118.7746 2140.3629 2136.7215 2154.4083 2135.9412 2105.2494 2161.1709 2144.2644 
2402 2095 2141.4033 2132.5599 2123.4564 2119.0347 2146.3452 2145.3048 2122.6761 2139.0624 2130.7392 2149.9866 2139.0624 2109.6711 2166.1128 2146.6053 
2392 2091 2142.1836 2131.5195 2123.7165 2116.6938 2145.825 2148.1659 2123.4564 2136.7215 2129.6988 2149.7265 2135.6811 2109.411 2164.2921 2147.3856 
2388 2090 2133.6003 2120.0751 2109.9312 2105.7696 2138.2821 2135.6811 2113.8327 2120.5953 2118.7746 2140.1028 2122.6761 2095.3656 2150.2467 2137.2417 
2383 2089 2126.5776 2112.7923 2106.2898 2102.6484 2134.9008 2129.4387 2111.7519 2107.5903 2104.4691 2137.5018 2118.5145 2089.1232 2143.7442 2128.6584 
2381 2090 2129.6988 2119.815 2115.6534 2108.8908 2141.1432 2139.3225 2120.3352 2110.1913 2103.4287 2142.1836 2125.2771 2095.6257 2151.027 2133.3402 
2377 2088 2129.4387 2122.416 2113.0524 2107.5903 2130.9993 2140.8831 2120.5953 2114.0928 2109.1509 2138.8023 2126.8377 2095.6257 2155.1886 2137.2417 
2373 2087 2126.0574 2119.815 2106.5499 2104.4691 2115.3933 2132.2998 2116.6938 2114.8731 2114.613 2143.4841 2125.5372 2090.9439 2153.8881 2134.3806 
2370 2067 2128.3983 2122.6761 2110.9716 2109.411 2128.1382 2130.4791 2120.5953 2126.3175 2124.7569 2157.7896 2125.017 2091.204 2152.0674 2134.1205 
2364 2073 2129.6988 2119.0347 2114.3529 2112.5322 2142.7038 2134.3806 2123.9766 2138.2821 2132.5599 2151.027 2126.8377 2093.0247 2153.3679 2136.7215 
2354 2061 2139.0624 2127.3579 2121.1155 2116.6938 2129.6988 2139.0624 2117.214 2129.4387 2131.5195 2150.5068 2137.2417 2101.608 2161.6911 2141.4033 
2349 2058 2139.3225 2130.7392 2119.5549 2118.2544 2139.5826 2137.5018 2115.6534 2130.9993 2128.6584 2150.7669 2129.4387 2099.2671 2153.3679 2138.8023 
2340 2056 2133.8604 2122.6761 2117.7342 2117.214 2143.224 2139.8427 2116.1736 2136.4614 2128.3983 2151.2871 2125.5372 2099.2671 2152.0674 2137.5018 
2335 2053 2130.9993 2121.1155 2117.4741 2115.1332 2128.1382 2140.8831 2117.7342 2132.2998 2125.017 2144.7846 2125.7973 2098.7469 2153.628 2138.022 
2329 2045 2130.7392 2126.3175 2114.613 2115.1332 2117.214 2139.5826 2119.5549 2123.1963 2117.214 2126.5776 2120.0751 2093.805 2146.6053 2133.6003 
2325 2039 2129.4387 2125.2771 2114.3529 2116.9539 2125.017 2139.0624 2120.5953 2119.0347 2109.6711 2124.7569 2115.9135 2094.0651 2143.7442 2129.6988 
2319 2030 2124.2367 2116.6938 2114.3529 2116.1736 2133.8604 2138.8023 2119.815 2113.5726 2103.1686 2141.1432 2117.214 2094.8454 2144.7846 2129.6988 
2317 2026 2121.1155 2113.0524 2110.7115 2113.5726 2130.9993 2137.7619 2120.5953 2106.5499 2097.9666 2144.0043 2115.9135 2091.9843 2140.1028 2129.9589 
2311 2021 2122.6761 2116.1736 2111.2317 2114.0928 2131.2594 2138.8023 2122.1559 2107.8504 2099.007 2139.8427 2116.9539 2093.5449 2140.1028 2129.9589 
2306 2019 2123.7165 2117.214 2113.8327 2116.6938 2135.9412 2141.6634 2121.6357 2116.4337 2109.1509 2142.7038 2123.9766 2098.4868 2148.9462 2132.0397 
2303 2017 2126.5776 2119.815 2114.3529 2120.3352 2130.7392 2145.825 2122.416 2123.9766 2119.5549 2142.9639 2130.4791 2102.9085 2155.1886 2136.7215 
2296 2012 2131.5195 2124.4968 2114.8731 2121.8958 2127.0978 2146.8654 2122.9362 2129.9589 2124.7569 2148.6861 2132.5599 2105.5095 2155.9689 2140.3629 
2292 2011 2132.2998 2125.2771 2115.6534 2122.9362 2135.9412 2146.3452 2121.1155 2134.3806 2128.1382 2155.4487 2132.2998 2105.7696 2155.4487 2141.1432 
2287 2005 2130.4791 2123.4564 2115.1332 2123.4564 2142.4437 2147.1255 2120.5953 2137.2417 2130.9993 2153.8881 2131.2594 2102.3883 2153.8881 2139.3225 
2282 2003 2129.9589 2123.1963 2114.8731 2123.4564 2138.022 2147.6457 2121.6357 2137.7619 2129.9589 2146.8654 2130.219 2099.5272 2153.1078 2136.7215 
2275 2002 2132.2998 2126.8377 2116.9539 2126.3175 2133.6003 2149.2063 2123.9766 2135.421 2129.6988 2145.825 2129.6988 2100.8277 2152.3275 2136.4614 
2272 2000 2131.7796 2126.0574 2113.5726 2122.1559 2131.2594 2146.6053 2122.416 2132.5599 2130.219 2153.3679 2124.7569 2097.1863 2148.1659 2136.2013 
2268 1998 2124.4968 2115.1332 2105.7696 2112.012 2131.2594 2139.5826 2116.6938 2125.2771 2120.3352 2149.9866 2119.0347 2088.8631 2144.0043 2131.7796 
2265 1997 2123.1963 2113.0524 2107.3302 2115.3933 2136.9816 2142.7038 2120.5953 2118.2544 2110.7115 2138.8023 2122.416 2090.4237 2145.825 2132.82 
2261 1992 2130.7392 2123.9766 2114.3529 2121.6357 2135.421 2149.7265 2131.2594 2122.1559 2116.9539 2147.1255 2127.618 2098.7469 2147.1255 2138.022 
2258 1990 2133.0801 2123.9766 2115.3933 2116.9539 2128.9185 2148.426 2132.82 2129.6988 2124.2367 2160.3906 2126.0574 2100.0474 2146.3452 2139.3225 
2255 1984 2128.9185 2113.5726 2113.3125 2112.7923 2134.6407 2143.224 2126.3175 2127.3579 2118.7746 2141.1432 2121.8958 2096.9262 2147.3856 2138.022 
2252 1982 2129.1786 2112.012 2112.5322 2112.2721 2133.8604 2139.8427 2122.416 2122.1559 2114.613 2129.6988 2121.1155 2097.1863 2148.9462 2139.3225 
2250 1981 2135.421 2119.0347 2116.9539 2115.1332 2126.5776 2140.1028 2120.3352 2125.5372 2117.7342 2156.229 2129.1786 2102.9085 2153.8881 2142.7038 
2247 1969 2145.3048 2132.5599 2128.6584 2127.8781 2135.421 2148.6861 2122.9362 2135.6811 2125.017 2168.9739 2139.3225 2115.1332 2161.431 2149.9866 
2246 1962 2154.9285 2144.7846 2137.2417 2135.421 2142.1836 2158.5699 2132.2998 2147.1255 2136.7215 2162.2113 2144.0043 2123.7165 2166.8931 2157.7896 
2244 1984 2149.9866 2133.8604 2131.5195 2124.7569 2138.2821 2153.628 2131.7796 2147.6457 2140.623 2162.7315 2140.8831 2119.0347 2163.5118 2153.628 
2241 2017 2135.421 2115.6534 2119.815 2115.3933 2140.623 2141.6634 2119.5549 2134.1205 2129.6988 2157.2694 2131.5195 2107.8504 2152.0674 2142.4437 
2228 2058 2129.4387 2117.214 2114.8731 2115.1332 2141.6634 2139.5826 2114.8731 2123.7165 2120.8554 2143.224 2122.416 2099.5272 2143.7442 2136.7215 
2228 2043 2131.2594 2123.9766 2115.6534 2115.3933 2133.0801 2142.9639 2120.3352 2123.1963 2121.3756 2141.4033 2121.6357 2098.4868 2143.224 2136.7215 
2223 1990 2131.2594 2120.8554 2115.1332 2111.7519 2130.4791 2143.7442 2125.7973 2124.2367 2121.6357 2146.0851 2124.4968 2100.8277 2145.3048 2137.7619 
2222 1976 2128.9185 2121.8958 2112.7923 2108.3706 2130.219 2143.7442 2130.7392 2121.8958 2116.1736 2142.7038 2122.416 2098.2267 2144.5245 2136.2013 
2220 1978 2125.7973 2126.3175 2113.5726 2109.1509 2127.8781 2142.7038 2131.2594 2115.6534 2107.8504 2133.6003 2121.1155 2093.0247 2141.1432 2132.2998 
2221 1991 2120.8554 2118.5145 2114.613 2107.0701 2132.82 2136.9816 2125.017 2111.2317 2105.7696 2131.2594 2121.1155 2088.8631 2137.2417 2132.2998 
2220 2027 2121.6357 2113.8327 2115.1332 2104.9893 2134.3806 2135.421 2121.8958 2117.214 2112.5322 2142.9639 2121.1155 2090.1636 2139.3225 2136.4614 
2214 2040 2129.9589 2122.6761 2120.8554 2114.3529 2143.4841 2142.9639 2123.4564 2127.0978 2119.5549 2150.7669 2126.3175 2101.608 2150.5068 2140.623 
2212 2037 2140.1028 2133.3402 2130.4791 2129.6988 2161.9512 2148.1659 2123.7165 2133.0801 2126.5776 2139.8427 2138.022 2115.1332 2160.9108 2145.5649 
2211 2002 2140.8831 2132.2998 2129.4387 2125.7973 2157.2694 2143.224 2119.5549 2133.8604 2130.4791 2127.618 2139.8427 2112.2721 2160.3906 2148.1659 
2210 1980 2134.9008 2124.2367 2119.815 2111.2317 2138.2821 2138.022 2116.6938 2132.5599 2127.618 2128.6584 2130.9993 2100.5676 2153.1078 2145.0447 
2216 1958 2137.2417 2127.8781 2124.7569 2119.0347 2134.1205 2144.2644 2120.0751 2132.0397 2123.7165 2133.0801 2131.5195 2103.9489 2153.628 2144.0043 
2218 1959 2142.7038 2134.3806 2132.82 2128.9185 2133.0801 2149.2063 2123.7165 2129.9589 2123.4564 2125.7973 2136.7215 2109.9312 2154.6684 2147.1255 
2217 1973 2139.8427 2129.6988 2128.3983 2119.815 2129.9589 2146.3452 2122.1559 2126.0574 2123.4564 2119.2948 2130.7392 2103.4287 2149.7265 2146.6053 
2216 1981 2129.4387 2117.7342 2119.5549 2110.4514 2138.8023 2142.7038 2121.6357 2123.4564 2119.2948 2125.7973 2120.8554 2097.4464 2144.0043 2141.4033 
2216 1981 2119.5549 2110.4514 2113.3125 2110.4514 2139.5826 2140.623 2122.416 2121.6357 2113.8327 2131.5195 2116.6938 2095.3656 2136.9816 2134.1205 
2218 1979 2125.2771 2118.2544 2117.9943 2119.2948 2129.6988 2150.2467 2127.3579 2125.2771 2115.6534 2132.82 2123.1963 2100.8277 2139.0624 2136.9816 
2222 1985 2132.82 2126.0574 2124.2367 2124.2367 2120.3352 2156.229 2133.0801 2122.1559 2111.4918 2129.4387 2124.4968 2102.9085 2141.9235 2140.3629 
2221 1993 2119.815 2113.5726 2114.3529 2113.5726 2114.613 2142.4437 2125.7973 2105.2494 2095.3656 2115.6534 2112.7923 2089.6434 2131.2594 2131.2594 
2222 2011 2117.4741 2108.3706 2113.8327 2113.3125 2130.7392 2141.6634 2118.7746 2107.3302 2100.0474 2115.3933 2117.7342 2090.6838 2132.5599 2132.5599 
2223 2016 2137.5018 2129.1786 2134.9008 2132.0397 2144.2644 2158.5699 2126.3175 2129.9589 2123.4564 2136.2013 2136.7215 2112.7923 2149.4664 2147.9058 
2225 2017 2139.8427 2132.5599 2137.7619 2130.7392 2127.8781 2153.8881 2124.4968 2132.82 2127.3579 2141.6634 2133.3402 2114.613 2149.4664 2150.7669 
2229 2016 2126.3175 2113.8327 2125.5372 2116.6938 2121.8958 2139.8427 2113.0524 2125.7973 2123.4564 2134.3806 2124.7569 2102.9085 2141.6634 2142.4437 
2231 2018 2131.2594 2116.1736 2132.0397 2123.9766 2132.2998 2149.2063 2120.3352 2136.7215 2132.5599 2142.7038 2135.9412 2110.9716 2150.5068 2146.3452 
2238 2028 2142.4437 2130.7392 2142.1836 2133.3402 2125.5372 2159.6103 2127.618 2142.9639 2133.6003 2141.6634 2144.2644 2121.6357 2158.5699 2154.9285 
2242 2032 2140.623 2131.2594 2140.3629 2131.5195 2123.1963 2153.3679 2116.6938 2133.6003 2126.8377 2125.017 2139.3225 2119.0347 2156.4891 2151.8073 
2249 2042 2135.9412 2128.1382 2138.2821 2131.5195 2137.7619 2152.5876 2114.3529 2130.219 2127.618 2122.6761 2138.022 2115.6534 2153.628 2147.3856 
2253 2043 2133.6003 2127.8781 2137.5018 2130.7392 2134.6407 2157.2694 2123.9766 2128.6584 2124.2367 2129.6988 2139.8427 2116.4337 2150.7669 2146.6053 
2266 2042 2128.1382 2122.416 2133.6003 2126.5776 2119.5549 2152.0674 2123.7165 2118.2544 2111.2317 2120.5953 2134.9008 2114.0928 2145.825 2143.224 
2270 2039 2121.8958 2114.8731 2126.5776 2122.6761 2119.0347 2144.7846 2118.2544 2110.7115 2103.6888 2098.4868 2126.3175 2106.5499 2140.3629 2137.5018 
2283 2046 2120.5953 2113.0524 2122.1559 2118.7746 2125.017 2147.3856 2122.416 2110.7115 2105.2494 2100.0474 2123.4564 2103.4287 2138.022 2135.9412 
2286 2054 2121.3756 2113.8327 2123.4564 2118.2544 2126.8377 2149.9866 2127.618 2112.2721 2109.411 2115.3933 2122.416 2105.7696 2135.421 2135.421 
2289 2064 2120.0751 2112.5322 2125.5372 2119.5549 2118.5145 2144.2644 2125.017 2115.1332 2110.9716 2109.411 2120.8554 2105.2494 2136.4614 2134.6407 
2290 2072 2126.3175 2116.6938 2130.7392 2121.8958 2118.2544 2148.1659 2122.416 2123.1963 2116.9539 2107.5903 2131.5195 2112.012 2147.9058 2142.9639 
2290 2066 2138.022 2127.0978 2141.4033 2130.4791 2132.2998 2159.8704 2124.4968 2133.6003 2130.4791 2132.0397 2147.3856 2127.3579 2158.3098 2153.1078 
2287 2052 2140.3629 2128.3983 2147.9058 2136.4614 2136.7215 2158.83 2125.5372 2137.7619 2133.3402 2143.224 2145.3048 2130.9993 2157.0093 2155.1886 
2287 2048 2138.022 2121.8958 2146.0851 2130.4791 2133.0801 2153.1078 2121.8958 2135.1609 2125.7973 2126.8377 2136.7215 2123.9766 2153.628 2153.628 
2287 2049 2141.9235 2123.4564 2144.5245 2127.0978 2134.6407 2157.0093 2118.2544 2136.7215 2127.8781 2121.8958 2141.4033 2124.4968 2155.1886 2155.1886 
2285 2051 2149.2063 2133.8604 2151.027 2136.7215 2132.82 2165.0724 2119.5549 2141.1432 2134.1205 2125.5372 2149.2063 2132.82 2160.6507 2162.7315 
2285 2048 2150.2467 2136.9816 2154.9285 2139.8427 2126.8377 2165.5926 2122.9362 2136.9816 2128.9185 2121.6357 2145.0447 2133.6003 2161.9512 2164.2921 
2285 2046 2140.623 2126.3175 2144.2644 2129.1786 2127.3579 2157.7896 2120.5953 2125.2771 2118.2544 2119.2948 2131.5195 2122.416 2148.9462 2153.628 
2285 2036 2129.1786 2114.613 2130.219 2119.815 2130.219 2151.5472 2116.6938 2116.4337 2114.0928 2121.8958 2122.1559 2112.7923 2135.9412 2145.3048 
2285 2033 2122.6761 2109.1509 2124.7569 2117.214 2132.0397 2153.1078 2119.815 2113.0524 2111.7519 2120.5953 2122.1559 2109.9312 2135.1609 2144.5245 
2283 2032 2117.9943 2107.8504 2122.6761 2114.8731 2126.5776 2153.628 2124.4968 2113.8327 2108.1105 2109.411 2121.6357 2109.1509 2135.1609 2140.8831 
2282 2032 2113.0524 2103.6888 2116.1736 2107.0701 2115.3933 2148.9462 2124.2367 2112.7923 2107.5903 2102.6484 2114.0928 2104.9893 2129.1786 2135.9412 
2281 2032 2109.6711 2097.7065 2107.5903 2100.3075 2115.9135 2145.0447 2122.416 2111.4918 2110.7115 2109.9312 2110.7115 2103.4287 2127.3579 2134.6407 
2278 2030 2113.3125 2106.2898 2112.012 2108.3706 2113.3125 2145.825 2124.4968 2119.5549 2119.0347 2118.7746 2121.6357 2116.1736 2136.7215 2137.2417 
2277 2030 2125.5372 2123.7165 2127.618 2123.9766 2116.9539 2152.8477 2130.9993 2135.9412 2130.219 2126.5776 2133.3402 2135.1609 2147.6457 2144.7846 
2275 2031 2132.2998 2127.618 2131.7796 2125.7973 2135.421 2158.0497 2130.7392 2142.7038 2135.421 2132.82 2133.3402 2142.7038 2148.6861 2148.6861 
2275 2032 2128.6584 2119.0347 2125.2771 2121.6357 2141.4033 2154.6684 2123.4564 2139.0624 2133.0801 2126.5776 2127.618 2140.8831 2144.7846 2145.3048 
2275 2037 2129.1786 2121.3756 2128.3983 2125.7973 2132.82 2153.628 2122.9362 2138.5422 2132.2998 2119.0347 2129.6988 2146.3452 2146.6053 2147.9058 
2274 2040 2134.1205 2129.1786 2134.1205 2128.3983 2130.7392 2157.7896 2125.017 2141.1432 2133.3402 2129.1786 2137.5018 2154.4083 2151.027 2153.628 
2274 2038 2132.5599 2128.6584 2130.4791 2125.2771 2123.1963 2155.1886 2123.1963 2140.8831 2130.9993 2129.6988 2135.6811 2152.5876 2147.3856 2149.9866 
2274 2037 2126.3175 2121.3756 2120.8554 2114.3529 2110.4514 2146.3452 2120.0751 2130.4791 2123.9766 2110.4514 2122.9362 2140.8831 2138.5422 2142.7038 
2274 2036 2120.8554 2114.8731 2114.613 2104.9893 2121.6357 2146.3452 2115.3933 2117.214 2115.3933 2107.8504 2120.8554 2135.6811 2136.7215 2140.3629 
2276 2035 2116.9539 2113.3125 2114.3529 2109.6711 2133.3402 2149.9866 2115.1332 2112.2721 2112.7923 2117.9943 2126.3175 2138.022 2137.2417 2138.022 
2277 2035 2111.4918 2111.2317 2110.4514 2110.4514 2120.3352 2146.3452 2120.5953 2109.1509 2109.411 2113.5726 2116.4337 2130.219 2128.3983 2131.2594 
2276 2036 2108.1105 2106.5499 2103.4287 2099.007 2112.5322 2142.9639 2123.4564 2105.7696 2100.8277 2108.3706 2108.1105 2118.5145 2122.6761 2127.8781 
2275 2037 2108.6307 2104.209 2102.3883 2093.2848 2114.613 2142.1836 2122.6761 2110.1913 2100.8277 2112.7923 2117.4741 2118.5145 2128.3983 2129.4387 
2271 2042 2111.2317 2109.1509 2109.1509 2101.0878 2109.6711 2142.7038 2126.8377 2118.2544 2112.012 2113.8327 2125.2771 2124.7569 2134.9008 2133.0801 
2272 2044 2115.1332 2116.4337 2114.8731 2109.1509 2112.7923 2146.3452 2133.0801 2125.5372 2121.6357 2118.7746 2125.5372 2127.8781 2137.2417 2135.9412 
2268 2047 2117.7342 2114.3529 2114.8731 2109.9312 2133.8604 2147.6457 2132.2998 2134.1205 2127.3579 2129.1786 2126.8377 2128.3983 2137.5018 2138.2821 
2267 2046 2121.1155 2116.6938 2119.2948 2112.2721 2142.7038 2149.2063 2130.9993 2140.3629 2134.1205 2129.6988 2133.6003 2132.0397 2144.0043 2143.4841 
2266 2044 2129.9589 2128.3983 2129.1786 2120.3352 2132.82 2156.7492 2135.9412 2145.3048 2141.6634 2132.2998 2143.224 2139.3225 2154.1482 2149.4664 
2264 2040 2133.0801 2129.4387 2130.219 2121.8958 2124.2367 2153.628 2133.8604 2146.8654 2139.8427 2138.2821 2142.1836 2138.5422 2150.7669 2149.4664 
2262 2036 2125.5372 2123.4564 2121.3756 2111.4918 2114.0928 2138.022 2118.2544 2137.2417 2127.8781 2129.6988 2130.7392 2127.618 2142.7038 2145.825 
2259 2034 2122.1559 2121.8958 2118.2544 2108.1105 2109.9312 2135.6811 2112.7923 2125.2771 2120.8554 2113.3125 2128.9185 2121.3756 2143.7442 2144.5245 
2255 2038 2122.6761 2118.5145 2117.4741 2108.6307 2123.9766 2145.5649 2121.8958 2126.3175 2123.1963 2113.0524 2130.9993 2121.6357 2142.9639 2143.224 
2253 2041 2116.1736 2109.6711 2109.1509 2098.7469 2129.4387 2143.7442 2124.2367 2130.4791 2125.2771 2124.7569 2123.9766 2115.9135 2135.421 2138.5422 
2251 2048 2108.8908 2106.2898 2101.608 2091.4641 2110.1913 2135.6811 2120.0751 2125.2771 2120.3352 2127.8781 2117.9943 2106.2898 2128.6584 2132.2998 
2246 2048 2112.2721 2111.4918 2104.7292 2096.9262 2101.608 2140.8831 2126.0574 2124.7569 2119.5549 2123.4564 2121.8958 2108.3706 2129.4387 2134.6407 
2245 2048 2118.5145 2113.3125 2109.411 2100.0474 2120.8554 2146.3452 2131.7796 2132.0397 2127.3579 2114.613 2123.7165 2116.1736 2132.0397 2138.8023 
2241 2045 2115.6534 2106.81 2107.0701 2093.2848 2124.7569 2140.1028 2129.1786 2134.1205 2129.9589 2113.3125 2115.3933 2110.1913 2126.5776 2133.6003 
2241 2045 2112.5322 2103.9489 2107.0701 2093.2848 2112.7923 2138.2821 2130.7392 2130.219 2126.8377 2124.7569 2113.0524 2102.6484 2120.3352 2129.9589 
2238 2037 2118.2544 2114.3529 2117.4741 2105.5095 2117.214 2146.6053 2132.5599 2130.4791 2124.4968 2120.5953 2121.6357 2110.4514 2127.8781 2136.7215 
2237 2036 2123.7165 2121.8958 2123.4564 2110.7115 2120.8554 2148.426 2127.3579 2134.6407 2124.2367 2105.2494 2124.2367 2116.6938 2136.4614 2139.0624 
2230 2049 2122.6761 2118.7746 2122.1559 2106.5499 2113.5726 2140.8831 2124.4968 2138.5422 2126.8377 2118.7746 2125.5372 2117.7342 2137.5018 2139.3225 
2226 2053 2123.4564 2114.8731 2123.4564 2107.0701 2117.214 2137.7619 2125.2771 2139.5826 2132.0397 2145.3048 2136.2013 2126.5776 2140.8831 2144.5245 
2224 2043 2125.7973 2115.6534 2123.1963 2110.1913 2126.8377 2140.3629 2121.8958 2136.9816 2134.3806 2138.2821 2137.2417 2130.4791 2142.9639 2145.3048 
2221 2035 2132.82 2127.8781 2125.5372 2114.613 2122.416 2148.9462 2126.3175 2143.7442 2139.5826 2128.6584 2136.9816 2130.9993 2147.3856 2148.9462 
2213 2032 2138.2821 2131.5195 2128.6584 2114.613 2121.3756 2150.2467 2130.7392 2148.9462 2145.825 2136.7215 2145.0447 2134.1205 2151.2871 2154.1482 
2210 2033 2128.6584 2116.4337 2120.3352 2104.209 2128.3983 2139.8427 2122.1559 2137.7619 2139.3225 2135.1609 2136.4614 2125.017 2139.5826 2144.7846 
2207 2036 2119.815 2109.6711 2111.4918 2095.6257 2124.4968 2135.6811 2121.6357 2128.9185 2127.8781 2123.1963 2123.4564 2113.8327 2129.9589 2136.2013 
2198 2038 2123.4564 2116.9539 2116.1736 2101.0878 2113.0524 2138.022 2129.6988 2128.3983 2121.1155 2113.8327 2127.0978 2120.3352 2136.9816 2140.623 
2194 2036 2120.3352 2113.0524 2117.4741 2102.1282 2104.209 2133.8604 2127.8781 2123.4564 2117.9943 2114.0928 2126.3175 2123.7165 2136.2013 2141.4033 
2186 2031 2109.9312 2100.5676 2109.411 2089.6434 2107.0701 2130.4791 2127.8781 2122.9362 2119.2948 2124.4968 2122.1559 2115.3933 2126.8377 2134.6407 
2179 2022 2110.9716 2103.9489 2111.4918 2090.4237 2113.3125 2138.8023 2137.5018 2135.421 2126.0574 2132.5599 2134.1205 2120.3352 2133.8604 2137.2417 
2176 2018 2112.2721 2111.4918 2115.1332 2102.1282 2112.2721 2143.4841 2138.022 2142.1836 2132.5599 2132.82 2136.9816 2126.8377 2140.1028 2139.0624 
2173 2015 2104.7292 2107.0701 2107.3302 2102.3883 2116.4337 2136.2013 2128.1382 2136.4614 2131.7796 2130.9993 2121.8958 2117.214 2128.3983 2130.4791 
2170 2004 2107.3302 2107.3302 2106.5499 2099.7873 2124.2367 2133.8604 2123.9766 2133.6003 2129.4387 2124.4968 2121.6357 2111.7519 2124.7569 2128.9185 
2171 1995 2120.8554 2118.2544 2117.7342 2107.0701 2124.7569 2138.8023 2125.2771 2135.9412 2131.2594 2120.3352 2135.6811 2121.3756 2136.2013 2137.7619 
2174 1955 2128.6584 2126.0574 2125.017 2114.0928 2122.6761 2141.6634 2125.017 2134.9008 2132.82 2123.9766 2140.1028 2129.4387 2142.4437 2143.224 
2178 1927 2126.3175 2122.9362 2123.7165 2110.7115 2121.6357 2138.5422 2121.1155 2129.6988 2128.1382 2123.7165 2136.9816 2129.9589 2138.8023 2144.0043 
2177 1952 2123.9766 2120.0751 2125.017 2108.1105 2114.613 2137.5018 2121.1155 2130.7392 2130.9993 2129.6988 2142.1836 2133.3402 2141.4033 2147.1255 
2171 2010 2126.3175 2123.4564 2129.9589 2110.9716 2114.0928 2143.7442 2132.0397 2138.8023 2138.2821 2139.8427 2148.426 2139.0624 2149.2063 2148.9462 
2166 2066 2124.7569 2124.4968 2127.0978 2112.2721 2120.0751 2143.4841 2133.6003 2138.022 2136.9816 2136.4614 2144.0043 2135.1609 2146.8654 2145.5649 
2160 2063 2113.5726 2114.3529 2114.3529 2105.2494 2117.9943 2135.6811 2120.5953 2125.2771 2127.3579 2122.6761 2132.0397 2120.0751 2133.3402 2134.9008 
2164 2023 2112.012 2112.7923 2111.4918 2104.209 2127.8781 2140.623 2126.0574 2125.017 2122.1559 2125.7973 2133.3402 2116.6938 2132.82 2130.219 
2167 1972 2122.1559 2126.3175 2117.214 2112.2721 2135.9412 2148.1659 2140.8831 2136.4614 2125.017 2139.5826 2140.8831 2125.017 2141.1432 2136.4614 
2164 1986 2121.1155 2129.4387 2116.9539 2113.5726 2123.9766 2141.9235 2135.421 2134.9008 2129.6988 2130.7392 2133.3402 2113.3125 2135.421 2138.2821 
2136 2092 2112.2721 2120.0751 2117.214 2101.3479 2101.8681 2129.9589 2131.5195 2127.618 2129.9589 2111.2317 2128.1382 2093.5449 2129.1786 2138.022 
2113 2117 2110.4514 2114.613 2113.8327 2094.5853 2115.9135 2126.5776 2136.2013 2130.219 2126.0574 2129.1786 2125.2771 2102.3883 2127.618 2132.82 
2104 2108 2109.1509 2113.5726 2114.3529 2097.9666 2126.5776 2127.0978 2129.1786 2128.3983 2128.3983 2128.1382 2121.1155 2104.4691 2126.0574 2129.1786 
2088 2083 2118.2544 2127.8781 2122.6761 2110.4514 2117.4741 2132.5599 2129.1786 2128.9185 2131.5195 2125.2771 2132.2998 2107.3302 2134.1205 2134.9008 
2083 2069 2125.5372 2136.7215 2125.7973 2113.3125 2118.7746 2136.4614 2131.5195 2130.9993 2133.3402 2131.7796 2141.9235 2109.1509 2140.623 2140.8831 
2077 2048 2119.815 2128.1382 2120.5953 2103.4287 2139.8427 2134.1205 2124.4968 2129.4387 2134.1205 2140.623 2139.3225 2100.8277 2139.3225 2141.9235 
2070 2041 2117.214 2124.7569 2119.815 2101.608 2149.2063 2133.3402 2119.5549 2129.1786 2136.7215 2164.5522 2141.1432 2097.7065 2141.1432 2145.0447 
2067 2035 2127.0978 2138.2821 2126.8377 2109.6711 2134.9008 2139.0624 2126.3175 2132.0397 2137.7619 2177.037 2146.0851 2105.7696 2145.5649 2150.2467 
2063 2024 2140.3629 2153.3679 2134.6407 2117.9943 2118.5145 2146.8654 2135.421 2137.7619 2140.8831 2163.2517 2149.2063 2116.4337 2150.5068 2156.229 
2062 2014 2139.3225 2146.0851 2133.0801 2115.6534 2127.0978 2147.6457 2138.022 2138.022 2138.2821 2154.4083 2146.6053 2115.9135 2149.7265 2155.7088 
2061 2009 2129.1786 2128.1382 2125.2771 2106.5499 2154.1482 2144.0043 2136.9816 2131.5195 2128.6584 2167.6734 2139.3225 2108.3706 2141.1432 2147.6457 
2060 2004 2129.4387 2130.219 2125.017 2107.5903 2152.0674 2145.0447 2136.4614 2130.219 2131.5195 2178.5976 2137.5018 2107.0701 2137.5018 2145.5649 
2059 1996 2130.4791 2135.6811 2126.5776 2109.9312 2129.1786 2147.1255 2139.3225 2133.6003 2138.8023 2174.436 2142.1836 2108.6307 2139.5826 2147.3856 
2059 1993 2121.8958 2122.9362 2119.0347 2101.0878 2129.9589 2143.4841 2138.5422 2129.6988 2132.82 2165.8527 2145.3048 2106.2898 2139.3225 2145.3048 
2062 1983 2119.2948 2120.0751 2115.3933 2097.7065 2135.9412 2140.8831 2135.421 2126.5776 2127.618 2165.0724 2142.9639 2103.9489 2139.3225 2143.7442 
2061 1980 2130.219 2132.82 2123.1963 2107.0701 2136.7215 2148.6861 2139.8427 2135.421 2135.6811 2173.1355 2147.1255 2108.8908 2146.0851 2147.9058 
2060 1978 2132.82 2130.9993 2122.416 2106.0297 2145.3048 2147.1255 2138.8023 2140.1028 2138.5422 2169.234 2151.8073 2109.6711 2150.7669 2148.9462 
2060 1980 2127.0978 2124.4968 2115.6534 2099.5272 2140.623 2137.5018 2130.4791 2135.6811 2136.7215 2165.5926 2149.7265 2104.4691 2146.0851 2145.0447 
2058 1983 2131.7796 2129.9589 2122.6761 2104.4691 2127.0978 2140.623 2130.7392 2135.421 2144.0043 2176.7769 2148.9462 2107.8504 2144.5245 2148.6861 
2057 1986 2141.6634 2133.0801 2132.2998 2107.3302 2135.9412 2148.6861 2137.7619 2140.3629 2149.2063 2183.2794 2156.229 2119.0347 2152.0674 2155.1886 
2058 1989 2145.5649 2136.9816 2132.2998 2106.0297 2154.4083 2152.0674 2140.8831 2144.0043 2147.6457 2182.4991 2163.2517 2125.2771 2158.5699 2158.3098 
2061 1995 2140.8831 2140.8831 2129.4387 2107.0701 2150.5068 2147.1255 2136.4614 2139.8427 2142.4437 2174.6961 2154.9285 2119.815 2151.5472 2154.6684 
2062 1996 2130.9993 2132.0397 2127.8781 2104.9893 2135.9412 2138.2821 2128.9185 2133.6003 2138.8023 2161.431 2144.7846 2112.5322 2142.1836 2147.6457 
2062 2002 2129.4387 2127.618 2130.4791 2104.9893 2132.82 2138.5422 2129.4387 2136.7215 2140.3629 2161.9512 2152.0674 2117.214 2146.6053 2149.2063 
2061 2004 2134.6407 2135.421 2131.7796 2107.0701 2133.8604 2140.8831 2135.421 2140.1028 2137.7619 2176.7769 2159.3502 2121.8958 2151.027 2154.9285 
2058 2010 2138.022 2140.3629 2132.2998 2108.3706 2138.5422 2142.4437 2140.1028 2141.6634 2141.1432 2178.3375 2154.6684 2120.3352 2146.3452 2155.7088 
2055 2012 2137.5018 2139.5826 2133.3402 2109.1509 2138.8023 2145.0447 2143.224 2145.3048 2153.8881 2164.8123 2151.027 2119.5549 2144.2644 2152.3275 
2053 2021 2133.0801 2134.1205 2131.2594 2106.81 2132.0397 2141.6634 2140.1028 2140.623 2146.0851 2166.8931 2151.027 2117.214 2145.3048 2149.2063 
2051 2027 2135.421 2133.8604 2133.0801 2104.9893 2131.7796 2139.5826 2135.6811 2134.6407 2128.6584 2181.1986 2153.1078 2117.9943 2146.8654 2151.8073 
2041 2037 2142.1836 2140.8831 2138.2821 2109.1509 2139.8427 2141.6634 2132.82 2134.6407 2135.9412 2174.1759 2155.7088 2122.416 2148.1659 2155.4487 
2037 2042 2134.9008 2135.9412 2133.3402 2108.1105 2141.6634 2133.8604 2125.2771 2128.6584 2141.9235 2157.7896 2150.7669 2118.2544 2142.9639 2149.7265 
2034 2045 2126.3175 2127.3579 2125.7973 2099.7873 2139.3225 2129.9589 2122.9362 2124.7569 2130.7392 2167.4133 2149.7265 2114.0928 2139.5826 2145.825 
2028 2048 2135.421 2134.3806 2129.6988 2099.007 2137.5018 2137.5018 2130.7392 2131.7796 2130.4791 2179.638 2155.9689 2120.5953 2144.7846 2153.8881 
2025 2047 2139.5826 2139.3225 2130.9993 2101.0878 2123.4564 2135.1609 2132.0397 2132.82 2139.0624 2165.0724 2154.4083 2120.0751 2146.3452 2154.6684 
2017 2045 2130.219 2135.421 2126.3175 2101.8681 2118.2544 2127.3579 2126.3175 2129.4387 2139.0624 2155.4487 2150.5068 2113.5726 2143.4841 2148.426 
2011 2043 2134.9008 2137.5018 2132.5599 2109.1509 2144.0043 2135.1609 2130.4791 2136.2013 2137.7619 2165.8527 2157.7896 2119.5549 2147.6457 2153.8881 
2004 2038 2141.4033 2140.8831 2139.8427 2116.6938 2156.4891 2141.9235 2133.3402 2140.623 2140.623 2172.3552 2159.6103 2125.7973 2149.9866 2157.0093 
1999 2036 2134.1205 2142.7038 2137.2417 2115.3933 2134.1205 2136.4614 2129.4387 2137.5018 2143.4841 2170.0143 2154.6684 2122.9362 2144.7846 2150.5068 
1991 2029 2133.3402 2145.3048 2135.6811 2113.0524 2124.4968 2136.4614 2132.2998 2136.4614 2143.4841 2170.5345 2158.83 2122.9362 2146.8654 2149.7265 
1988 2026 2139.5826 2143.7442 2137.5018 2113.8327 2136.4614 2141.9235 2138.2821 2137.5018 2138.2821 2174.1759 2160.3906 2125.017 2149.9866 2152.5876 
1983 2018 2129.4387 2131.2594 2129.4387 2104.7292 2138.5422 2133.0801 2133.6003 2130.7392 2131.5195 2168.7138 2149.2063 2117.7342 2140.8831 2145.3048 
1979 2014 2116.4337 2120.0751 2118.7746 2094.3252 2134.1205 2118.5145 2125.5372 2120.5953 2127.0978 2159.3502 2141.9235 2110.4514 2131.5195 2135.6811 
1974 2006 2125.2771 2129.1786 2122.1559 2101.8681 2127.3579 2123.4564 2128.3983 2122.9362 2128.1382 2153.8881 2145.3048 2116.4337 2134.6407 2140.3629 
1972 2001 2134.1205 2140.8831 2127.618 2108.1105 2116.6938 2132.5599 2132.82 2130.219 2131.7796 2145.5649 2146.6053 2121.6357 2138.2821 2147.6457 
1971 1997 2126.3175 2132.0397 2122.416 2099.007 2118.5145 2128.3983 2129.9589 2128.9185 2127.618 2146.8654 2144.2644 2119.815 2135.6811 2144.7846 
1966 1995 2123.7165 2125.017 2121.3756 2097.4464 2135.1609 2128.6584 2131.7796 2130.9993 2128.6584 2166.8931 2145.3048 2125.2771 2137.7619 2144.7846 
1963 1994 2133.6003 2139.0624 2129.1786 2109.1509 2140.623 2134.1205 2138.8023 2140.623 2141.4033 2176.2567 2152.0674 2138.022 2143.7442 2151.2871 
1960 1993 2132.5599 2142.4437 2129.4387 2109.1509 2126.0574 2128.1382 2135.421 2139.3225 2141.4033 2164.032 2155.7088 2144.7846 2142.1836 2150.5068 
1960 1992 2119.5549 2125.5372 2119.0347 2096.9262 2121.8958 2119.5549 2126.8377 2131.2594 2130.9993 2161.431 2148.1659 2144.0043 2135.9412 2142.1836 
1958 1990 2119.815 2123.7165 2120.8554 2098.4868 2133.8604 2123.1963 2128.9185 2134.6407 2135.1609 2165.0724 2150.5068 2153.1078 2140.1028 2146.3452 
1956 1990 2128.9185 2135.9412 2128.3983 2107.8504 2125.2771 2125.2771 2132.2998 2138.8023 2141.9235 2157.0093 2160.9108 2165.5926 2148.1659 2153.3679 
1955 1990 2129.1786 2138.022 2125.7973 2106.5499 2111.2317 2120.8554 2128.1382 2135.1609 2138.2821 2157.0093 2158.0497 2165.3325 2144.7846 2149.2063 
1955 1991 2129.9589 2138.2821 2123.7165 2104.9893 2132.0397 2127.3579 2130.4791 2137.7619 2140.3629 2168.1936 2157.2694 2166.633 2146.3452 2150.5068 
1951 1992 2130.9993 2138.5422 2124.4968 2106.2898 2146.8654 2131.5195 2134.1205 2138.2821 2142.1836 2162.7315 2161.431 2169.7542 2149.4664 2153.8881 
1948 1994 2127.8781 2134.3806 2122.6761 2106.5499 2133.6003 2125.017 2130.9993 2132.5599 2136.4614 2153.8881 2154.6684 2165.8527 2141.6634 2148.6861 
1946 1995 2129.9589 2141.4033 2125.2771 2110.9716 2125.7973 2127.0978 2133.8604 2134.9008 2139.0624 2165.0724 2150.5068 2165.3325 2139.0624 2149.2063 
1945 1996 2134.6407 2150.2467 2128.3983 2115.3933 2127.3579 2133.8604 2137.7619 2140.3629 2143.7442 2175.7365 2154.4083 2168.4537 2142.9639 2153.8881 
1944 1994 2132.2998 2139.0624 2123.4564 2107.5903 2127.0978 2129.1786 2133.3402 2138.022 2139.0624 2165.8527 2151.2871 2161.9512 2139.8427 2150.2467 
1941 1994 2126.5776 2128.3983 2117.214 2098.7469 2128.9185 2121.6357 2129.4387 2135.9412 2135.9412 2152.8477 2144.2644 2152.5876 2135.9412 2145.825 
1939 1995 2125.017 2131.7796 2119.0347 2100.5676 2129.4387 2121.8958 2131.5195 2137.7619 2138.022 2153.8881 2146.6053 2152.8477 2138.2821 2147.3856 
1937 1992 2126.0574 2131.2594 2122.1559 2105.5095 2126.5776 2122.416 2130.4791 2138.022 2139.0624 2160.6507 2152.0674 2155.1886 2139.5826 2148.1659 
1936 1990 2128.9185 2132.0397 2123.9766 2105.5095 2126.3175 2122.6761 2128.3983 2138.5422 2142.7038 2164.2921 2154.6684 2155.7088 2140.3629 2150.2467 
1935 1985 2132.0397 2136.4614 2127.0978 2103.6888 2118.2544 2125.5372 2132.5599 2142.4437 2146.6053 2161.9512 2157.0093 2157.5295 2145.5649 2154.1482 
1935 1983 2138.8023 2141.4033 2133.0801 2110.7115 2118.5145 2132.82 2139.0624 2146.0851 2145.3048 2162.4714 2164.032 2163.2517 2153.3679 2158.83 
1931 1979 2141.1432 2143.4841 2134.6407 2115.3933 2135.1609 2131.5195 2136.7215 2141.6634 2141.1432 2165.0724 2163.5118 2163.7719 2150.5068 2158.83 
1929 1979 2131.2594 2137.5018 2127.618 2105.7696 2140.1028 2121.1155 2127.618 2132.2998 2139.8427 2165.3325 2151.2871 2153.628 2138.022 2152.0674 
1922 1985 2129.6988 2138.2821 2128.6584 2106.0297 2131.2594 2126.0574 2132.5599 2136.4614 2145.3048 2167.9335 2154.6684 2153.8881 2143.4841 2153.628 
1920 1988 2133.3402 2142.7038 2130.7392 2112.5322 2122.416 2130.4791 2138.8023 2141.6634 2146.6053 2168.7138 2163.2517 2157.7896 2152.3275 2156.4891 
1916 1995 2125.5372 2131.2594 2122.6761 2102.3883 2120.0751 2116.4337 2129.1786 2133.0801 2139.0624 2162.7315 2155.7088 2149.7265 2143.224 2148.6861 
1910 1998 2123.1963 2124.4968 2119.5549 2097.9666 2127.3579 2113.5726 2124.7569 2129.9589 2134.6407 2156.4891 2155.4487 2148.1659 2141.9235 2147.1255 
1905 2001 2131.2594 2135.421 2125.7973 2110.9716 2135.6811 2122.9362 2130.219 2137.7619 2137.7619 2163.7719 2163.5118 2154.1482 2148.9462 2151.8073 
1902 2006 2130.4791 2138.022 2125.5372 2112.5322 2123.4564 2118.2544 2127.0978 2139.0624 2141.4033 2171.835 2157.7896 2150.7669 2141.6634 2148.6861 
1899 2006 2126.5776 2131.7796 2122.9362 2103.4287 2113.3125 2115.3933 2127.0978 2137.7619 2146.3452 2162.9916 2151.027 2144.5245 2138.8023 2148.6861 
1894 2005 2131.7796 2138.2821 2129.6988 2106.2898 2128.1382 2125.7973 2136.4614 2142.9639 2148.6861 2155.7088 2157.5295 2147.3856 2148.1659 2155.1886 
1889 2002 2132.5599 2146.0851 2133.0801 2112.5322 2135.1609 2122.416 2133.6003 2139.0624 2142.1836 2159.3502 2155.9689 2146.0851 2143.224 2151.027 
1888 1987 2129.1786 2145.5649 2130.7392 2113.8327 2130.7392 2113.3125 2127.0978 2133.3402 2139.5826 2160.9108 2149.9866 2142.9639 2135.421 2143.7442 
1886 1966 2130.4791 2145.825 2130.9993 2117.9943 2128.6584 2115.3933 2129.1786 2135.421 2139.5826 2159.8704 2153.1078 2146.3452 2140.623 2147.6457 
1871 1966 2131.7796 2146.6053 2131.7796 2120.0751 2123.9766 2116.1736 2126.3175 2130.7392 2129.9589 2159.0901 2151.8073 2145.0447 2139.8427 2149.2063 
1861 2016 2128.6584 2142.7038 2129.9589 2117.214 2119.815 2113.0524 2120.5953 2120.0751 2120.3352 2145.3048 2144.2644 2139.8427 2130.7392 2141.6634 
1845 2110 2125.017 2137.5018 2128.3983 2115.3933 2124.7569 2113.3125 2121.6357 2119.5549 2127.0978 2136.7215 2139.5826 2136.9816 2128.3983 2138.2821 
1841 2106 2123.7165 2134.1205 2125.7973 2111.4918 2122.6761 2112.2721 2121.1155 2125.017 2132.0397 2147.3856 2138.8023 2134.6407 2130.7392 2141.6634 
1842 2073 2128.6584 2143.224 2128.1382 2115.3933 2120.5953 2114.613 2123.4564 2130.4791 2127.618 2159.0901 2146.6053 2141.6634 2136.2013 2147.6457 
1836 2000 2141.4033 2165.3325 2140.3629 2133.3402 2139.5826 2124.4968 2136.2013 2141.4033 2139.8427 2164.5522 2161.431 2160.1305 2148.426 2154.1482 
1831 1987 2141.4033 2161.431 2142.4437 2132.82 2147.6457 2120.0751 2134.9008 2139.5826 2152.5876 2159.6103 2162.4714 2157.5295 2151.2871 2151.2871 
1815 2023 2125.2771 2134.1205 2128.6584 2108.8908 2124.7569 2104.9893 2119.5549 2123.1963 2139.8427 2141.6634 2145.3048 2129.4387 2133.3402 2138.2821 
1805 2061 2122.9362 2142.7038 2128.1382 2110.9716 2121.3756 2113.3125 2124.2367 2123.4564 2132.0397 2140.623 2141.4033 2123.1963 2126.0574 2136.7215 
1792 2108 2132.0397 2168.9739 2139.3225 2130.4791 2148.9462 2128.1382 2139.5826 2135.9412 2138.2821 2157.5295 2150.5068 2141.1432 2139.5826 2145.825 
1789 2108 2125.5372 2160.6507 2133.6003 2125.2771 2145.825 2114.3529 2133.6003 2130.9993 2129.4387 2152.8477 2142.4437 2141.9235 2138.022 2139.8427 
1786 2072 2114.0928 2148.1659 2124.2367 2117.4741 2119.2948 2098.4868 2121.3756 2119.2948 2119.815 2135.421 2127.8781 2130.7392 2120.8554 2127.8781 
1785 2051 2115.6534 2153.628 2127.3579 2122.6761 2121.1155 2103.6888 2123.7165 2119.5549 2128.9185 2135.6811 2127.618 2128.3983 2116.6938 2127.8781 
1780 2023 2118.5145 2150.2467 2129.1786 2119.2948 2129.9589 2108.8908 2129.1786 2122.416 2132.2998 2139.8427 2130.4791 2124.7569 2122.9362 2132.0397 
1778 2020 2116.1736 2145.0447 2126.8377 2111.7519 2122.9362 2107.0701 2129.4387 2120.0751 2127.0978 2132.82 2131.2594 2119.5549 2123.1963 2131.2594 
1772 2035 2117.9943 2152.5876 2129.9589 2113.3125 2122.1559 2114.613 2130.7392 2121.1155 2127.0978 2135.421 2136.7215 2122.416 2123.9766 2131.2594 
1769 2044 2123.1963 2157.7896 2131.5195 2115.9135 2122.416 2123.4564 2134.1205 2126.5776 2131.5195 2146.0851 2139.5826 2126.3175 2126.8377 2134.9008 
1766 2049 2119.0347 2151.027 2123.1963 2112.5322 2117.4741 2115.3933 2129.6988 2125.7973 2131.2594 2142.1836 2135.1609 2122.6761 2124.7569 2132.5599 
1760 2036 2116.6938 2145.3048 2120.5953 2113.0524 2134.1205 2115.6534 2129.6988 2125.5372 2131.7796 2146.6053 2137.7619 2122.1559 2127.3579 2133.0801 
1757 2022 2123.9766 2147.3856 2123.9766 2117.4741 2142.9639 2129.4387 2139.0624 2130.9993 2135.421 2159.3502 2140.8831 2122.6761 2132.2998 2138.2821 
1750 2000 2120.5953 2143.4841 2116.4337 2110.7115 2123.1963 2125.2771 2135.9412 2127.3579 2136.7215 2144.2644 2132.82 2111.2317 2125.2771 2135.6811 
1747 1990 2106.2898 2131.5195 2103.6888 2097.9666 2119.0347 2111.2317 2122.6761 2119.0347 2132.5599 2130.4791 2125.7973 2097.1863 2113.8327 2127.3579 
1740 1984 2102.3883 2124.4968 2102.3883 2095.3656 2136.2013 2112.7923 2119.5549 2119.0347 2118.5145 2151.5472 2126.5776 2096.1459 2113.5726 2127.3579 
1736 1992 2113.0524 2131.7796 2110.9716 2101.8681 2134.6407 2122.6761 2126.5776 2123.7165 2114.613 2157.2694 2130.4791 2105.2494 2120.8554 2134.9008 
1729 2008 2124.2367 2143.224 2119.0347 2107.0701 2121.1155 2126.3175 2132.5599 2128.1382 2132.2998 2140.8831 2136.2013 2113.8327 2127.8781 2139.8427 
1725 2010 2126.8377 2143.4841 2121.1155 2106.5499 2122.1559 2127.3579 2134.9008 2132.5599 2144.7846 2147.9058 2138.8023 2116.9539 2129.6988 2140.3629 
1722 2002 2122.9362 2137.5018 2120.8554 2106.0297 2131.2594 2126.5776 2133.8604 2131.7796 2136.7215 2154.1482 2135.6811 2120.3352 2125.2771 2139.8427 
1716 1998 2123.1963 2138.022 2125.7973 2110.7115 2139.5826 2125.7973 2130.7392 2126.5776 2127.0978 2140.1028 2137.7619 2126.3175 2127.618 2141.1432 
1696 1996 2125.2771 2140.8831 2130.4791 2112.5322 2132.0397 2124.4968 2126.3175 2125.017 2127.8781 2135.6811 2141.6634 2127.3579 2132.0397 2142.4437 
1708 1997 2121.1155 2139.3225 2127.8781 2105.2494 2118.7746 2119.2948 2121.8958 2125.5372 2129.6988 2145.5649 2136.4614 2123.1963 2125.2771 2140.623 
1704 1999 2126.3175 2143.4841 2132.2998 2106.0297 2126.0574 2126.5776 2127.618 2130.7392 2134.3806 2146.0851 2136.9816 2128.9185 2125.7973 2144.7846 
1695 2005 2134.9008 2148.6861 2138.8023 2113.3125 2126.8377 2133.8604 2135.1609 2136.7215 2138.2821 2139.3225 2141.9235 2135.421 2133.3402 2151.8073 
1691 2006 2127.0978 2140.8831 2131.5195 2109.411 2112.7923 2122.9362 2129.4387 2131.7796 2135.1609 2141.6634 2134.6407 2126.8377 2127.0978 2147.1255 
1688 2005 2116.9539 2130.219 2121.1155 2097.9666 2115.9135 2110.9716 2121.3756 2121.8958 2127.0978 2146.6053 2128.6584 2116.1736 2119.0347 2137.2417 
1688 2003 2119.2948 2128.9185 2120.5953 2094.5853 2128.6584 2114.8731 2118.7746 2119.2948 2122.1559 2140.1028 2129.9589 2114.3529 2121.1155 2136.9816 
1686 1998 2126.8377 2136.9816 2126.8377 2103.9489 2129.6988 2127.8781 2123.1963 2127.3579 2128.3983 2136.4614 2129.6988 2117.7342 2122.1559 2143.224 
1685 1998 2128.6584 2144.0043 2130.7392 2113.0524 2130.219 2132.82 2129.1786 2132.2998 2133.0801 2146.0851 2132.5599 2122.9362 2124.2367 2145.5649 
1684 1997 2128.9185 2146.0851 2132.2998 2114.8731 2130.219 2130.4791 2130.4791 2130.219 2132.82 2149.7265 2141.6634 2129.9589 2132.0397 2146.0851 
1685 1999 2129.1786 2145.3048 2132.5599 2115.6534 2130.7392 2130.4791 2131.2594 2130.9993 2136.9816 2144.0043 2141.6634 2132.0397 2132.0397 2146.6053 
1682 2003 2124.4968 2140.8831 2126.5776 2111.4918 2134.9008 2129.6988 2129.6988 2131.5195 2134.3806 2143.224 2131.5195 2121.6357 2123.7165 2141.4033 
1683 2006 2117.214 2135.9412 2117.9943 2104.4691 2124.4968 2123.7165 2121.8958 2127.8781 2122.1559 2142.4437 2127.0978 2111.2317 2119.815 2133.6003 
1684 2010 2123.4564 2142.1836 2126.8377 2115.3933 2133.0801 2131.5195 2125.2771 2133.3402 2129.4387 2145.0447 2138.5422 2121.6357 2129.6988 2138.2821 
1685 2012 2140.8831 2157.2694 2143.7442 2134.1205 2159.6103 2147.9058 2140.3629 2145.0447 2148.426 2153.3679 2148.6861 2136.7215 2140.3629 2150.5068 
1685 2015 2136.7215 2157.5295 2136.9816 2128.1382 2145.5649 2136.9816 2134.1205 2136.9816 2141.4033 2150.7669 2137.7619 2126.8377 2130.219 2146.0851 
1687 2022 2117.214 2139.8427 2120.5953 2107.5903 2124.4968 2117.7342 2116.6938 2119.2948 2126.8377 2137.5018 2124.4968 2110.9716 2115.1332 2133.3402 
1691 2025 2116.9539 2133.0801 2120.8554 2104.209 2136.7215 2126.5776 2122.9362 2123.9766 2133.6003 2138.022 2124.7569 2113.5726 2116.9539 2136.4614 
1700 2029 2123.7165 2142.4437 2125.5372 2110.9716 2130.9993 2135.421 2134.6407 2135.421 2136.4614 2138.8023 2124.4968 2116.1736 2119.0347 2140.1028 
1705 2030 2118.5145 2145.3048 2122.1559 2110.4514 2112.2721 2127.0978 2128.3983 2128.3983 2129.1786 2132.0397 2122.1559 2110.9716 2114.3529 2132.82 
1717 2032 2113.0524 2135.6811 2116.9539 2105.7696 2133.6003 2123.7165 2120.0751 2119.815 2130.219 2136.4614 2121.1155 2105.7696 2113.3125 2129.6988 
1721 2035 2110.4514 2125.7973 2112.2721 2101.3479 2150.7669 2126.0574 2124.2367 2121.8958 2127.0978 2139.0624 2114.8731 2099.5272 2111.7519 2130.4791 
1732 2036 2108.3706 2125.017 2113.3125 2101.3479 2131.2594 2126.5776 2129.9589 2122.9362 2120.3352 2133.0801 2112.5322 2097.4464 2108.1105 2127.618 
1755 2033 2120.3352 2144.2644 2122.9362 2116.9539 2129.9589 2130.7392 2119.815 2125.017 2142.1836 2140.623 2127.618 2112.7923 2119.815 2135.6811 
1763 2031 2123.1963 2143.4841 2127.0978 2117.9943 2141.6634 2134.3806 2121.1155 2128.1382 2141.1432 2141.4033 2131.5195 2116.9539 2124.4968 2139.3225 
1770 2030 2126.3175 2139.5826 2129.4387 2114.8731 2138.8023 2138.2821 2121.8958 2128.3983 2135.9412 2148.426 2131.7796 2117.7342 2123.9766 2138.8023 
1783 2029 2126.3175 2139.8427 2125.5372 2115.1332 2133.0801 2137.7619 2121.3756 2130.7392 2136.7215 2147.9058 2129.4387 2115.6534 2120.0751 2139.3225 
1789 2029 2125.017 2139.0624 2123.4564 2115.3933 2129.4387 2138.8023 2126.5776 2134.9008 2140.8831 2144.0043 2128.9185 2117.7342 2121.1155 2140.8831 
1801 2025 2122.416 2132.82 2121.6357 2109.9312 2126.5776 2138.2821 2126.8377 2130.4791 2138.8023 2135.9412 2126.3175 2117.214 2121.1155 2140.3629 
1805 2021 2117.4741 2126.5776 2115.6534 2103.9489 2131.7796 2132.0397 2120.8554 2119.815 2129.1786 2118.2544 2120.3352 2109.411 2113.0524 2135.421 
1815 2015 2122.6761 2133.6003 2119.815 2112.2721 2141.1432 2137.7619 2126.0574 2124.2367 2130.9993 2112.7923 2122.1559 2111.2317 2113.5726 2138.2821 
1820 2013 2134.1205 2144.7846 2133.0801 2125.2771 2134.3806 2151.027 2133.3402 2137.2417 2143.4841 2119.815 2131.7796 2123.9766 2125.017 2148.426 
1829 2015 2132.2998 2142.4437 2132.2998 2122.1559 2122.6761 2147.1255 2126.5776 2128.3983 2134.3806 2115.6534 2131.7796 2123.4564 2124.7569 2144.5245 
1831 2019 2124.7569 2136.7215 2125.2771 2118.5145 2124.7569 2138.022 2119.0347 2114.613 2116.1736 2108.6307 2120.8554 2112.012 2114.3529 2133.3402 
1837 2022 2121.1155 2131.5195 2124.2367 2120.3352 2128.9185 2138.5422 2119.2948 2116.6938 2119.0347 2112.2721 2112.7923 2106.2898 2106.2898 2130.4791 
1844 2021 2115.6534 2122.9362 2122.416 2115.1332 2131.5195 2140.623 2120.0751 2121.1155 2133.8604 2115.6534 2114.8731 2106.0297 2103.9489 2132.0397 
1857 2015 2118.5145 2127.8781 2125.2771 2115.9135 2132.2998 2144.7846 2121.8958 2126.5776 2140.1028 2114.3529 2125.7973 2112.2721 2115.6534 2136.4614 
1864 2010 2124.2367 2136.2013 2129.1786 2121.8958 2124.4968 2144.5245 2122.6761 2128.9185 2128.1382 2108.8908 2127.8781 2114.8731 2123.7165 2138.2821 
1871 2003 2122.1559 2130.7392 2129.1786 2120.0751 2123.4564 2142.1836 2122.9362 2123.7165 2121.1155 2113.0524 2119.5549 2111.7519 2114.613 2133.8604 
1882 1995 2125.2771 2131.5195 2133.0801 2121.3756 2134.1205 2148.426 2125.5372 2125.2771 2134.1205 2125.5372 2123.4564 2119.2948 2113.0524 2137.5018 
1887 1994 2130.219 2137.7619 2132.0397 2123.4564 2131.2594 2149.7265 2125.2771 2131.5195 2135.9412 2121.8958 2126.8377 2126.5776 2120.0751 2141.9235 
1894 1992 2123.9766 2130.9993 2122.9362 2115.6534 2119.2948 2142.7038 2123.7165 2128.9185 2121.8958 2111.7519 2115.6534 2121.8958 2114.8731 2134.1205 
1896 1991 2121.8958 2128.1382 2123.1963 2113.5726 2118.5145 2144.2644 2127.8781 2127.0978 2126.8377 2110.9716 2116.4337 2128.6584 2111.2317 2133.0801 
1900 1991 2125.017 2132.82 2127.8781 2115.3933 2117.9943 2145.825 2130.219 2127.618 2135.9412 2106.5499 2126.5776 2142.1836 2116.9539 2139.3225 
1901 1991 2123.4564 2129.9589 2121.8958 2112.2721 2114.0928 2141.6634 2126.5776 2123.4564 2130.219 2101.0878 2119.0347 2140.1028 2114.8731 2136.2013 
1900 1986 2125.2771 2129.6988 2120.5953 2116.9539 2115.1332 2145.3048 2122.9362 2124.2367 2132.2998 2116.6938 2112.7923 2140.8831 2111.4918 2134.3806 
1900 1982 2127.3579 2131.7796 2126.0574 2119.815 2119.5549 2146.8654 2122.9362 2129.4387 2134.9008 2130.9993 2120.0751 2151.027 2114.8731 2138.8023 
1900 1973 2123.1963 2128.6584 2122.6761 2113.0524 2125.5372 2143.4841 2123.7165 2128.1382 2129.4387 2108.6307 2118.2544 2149.2063 2114.0928 2136.7215 
1903 1963 2122.9362 2129.6988 2121.1155 2114.0928 2130.219 2145.0447 2122.9362 2124.7569 2130.219 2094.3252 2114.0928 2146.3452 2111.4918 2131.5195 
1906 1933 2122.6761 2128.6584 2123.7165 2115.9135 2134.3806 2144.2644 2122.1559 2122.9362 2128.9185 2119.5549 2117.214 2149.2063 2108.6307 2130.4791 
1901 1942 2119.5549 2122.1559 2122.6761 2110.9716 2133.0801 2140.623 2119.815 2120.3352 2125.7973 2125.017 2114.3529 2146.0851 2103.9489 2130.7392 
1894 1974 2121.6357 2124.4968 2121.6357 2110.7115 2118.5145 2140.1028 2117.214 2115.3933 2123.4564 2099.7873 2107.0701 2139.8427 2103.4287 2131.5195 
1879 2038 2121.8958 2129.9589 2120.5953 2115.6534 2110.9716 2140.8831 2119.0347 2112.5322 2112.5322 2097.9666 2108.1105 2138.022 2106.5499 2131.5195 
1877 2031 2117.9943 2125.7973 2117.7342 2116.1736 2124.7569 2141.4033 2117.214 2117.214 2110.4514 2114.0928 2113.8327 2137.5018 2106.0297 2130.7392 
1874 1947 2119.2948 2123.4564 2116.4337 2110.1913 2135.6811 2141.6634 2114.0928 2122.6761 2128.3983 2111.4918 2117.9943 2138.5422 2107.0701 2132.0397 
1868 1904 2122.416 2131.5195 2116.9539 2107.5903 2133.0801 2141.9235 2126.5776 2125.5372 2136.4614 2092.5045 2116.1736 2136.9816 2112.012 2132.0397 
1844 1884 2120.8554 2135.421 2118.7746 2115.3933 2129.9589 2141.9235 2135.421 2127.8781 2132.82 2088.0828 2113.5726 2129.6988 2112.012 2129.9589 
1831 1916 2126.0574 2139.8427 2128.6584 2126.3175 2130.9993 2143.7442 2122.1559 2131.7796 2138.022 2115.1332 2123.9766 2129.4387 2116.6938 2135.6811 
1806 2004 2130.7392 2147.6457 2131.7796 2123.9766 2135.1609 2143.224 2118.2544 2132.5599 2140.3629 2129.1786 2131.5195 2133.8604 2120.5953 2141.4033 
1797 2032 2122.6761 2141.6634 2121.1155 2112.7923 2138.2821 2137.2417 2125.7973 2125.2771 2131.7796 2105.7696 2120.3352 2130.7392 2111.7519 2133.3402 
1791 2028 2121.3756 2138.022 2122.6761 2120.5953 2142.9639 2135.1609 2118.7746 2121.8958 2126.8377 2097.9666 2116.6938 2133.6003 2112.7923 2130.9993 
1790 2010 2131.7796 2150.5068 2134.3806 2136.7215 2149.2063 2140.1028 2113.3125 2125.2771 2131.7796 2109.6711 2130.219 2142.9639 2126.5776 2139.0624 
1789 1971 2133.3402 2155.9689 2133.3402 2136.4614 2141.9235 2141.4033 2121.3756 2125.7973 2136.9816 2108.3706 2133.3402 2139.0624 2126.5776 2140.1028 
1779 1957 2129.6988 2153.1078 2129.6988 2130.4791 2140.3629 2139.5826 2125.5372 2122.1559 2134.9008 2117.4741 2125.5372 2127.618 2116.1736 2136.4614 
1774 1952 2131.7796 2153.8881 2132.82 2124.4968 2145.825 2139.5826 2125.017 2121.8958 2131.2594 2132.2998 2123.7165 2120.5953 2115.1332 2138.2821 
1760 1971 2133.3402 2148.6861 2129.1786 2114.8731 2139.5826 2138.022 2129.4387 2126.0574 2127.3579 2130.7392 2121.1155 2115.9135 2116.4337 2139.3225 
1747 1997 2131.2594 2145.0447 2123.1963 2116.6938 2132.82 2138.2821 2132.2998 2127.8781 2122.6761 2127.3579 2114.0928 2112.012 2111.7519 2136.7215 
1741 2006 2126.5776 2147.6457 2122.1559 2123.4564 2141.1432 2136.2013 2130.9993 2125.5372 2125.2771 2120.8554 2112.7923 2109.9312 2108.1105 2133.8604 
1739 2010 2120.5953 2135.6811 2115.9135 2112.2721 2149.2063 2130.4791 2126.5776 2120.8554 2129.1786 2112.5322 2113.5726 2105.7696 2107.5903 2130.4791 
1734 2003 2118.5145 2124.4968 2108.8908 2103.1686 2137.5018 2130.7392 2126.0574 2121.6357 2125.7973 2130.4791 2113.0524 2102.3883 2108.3706 2131.5195 
1730 1997 2126.0574 2139.8427 2116.9539 2115.6534 2132.0397 2140.623 2132.0397 2130.7392 2132.5599 2146.6053 2121.8958 2108.6307 2116.1736 2141.1432 
1726 1985 2136.9816 2154.9285 2130.9993 2128.9185 2153.1078 2147.6457 2129.6988 2141.6634 2149.2063 2139.3225 2136.4614 2119.0347 2129.6988 2150.2467 
1723 1982 2131.5195 2142.9639 2125.017 2121.1155 2160.3906 2139.8427 2126.5776 2141.9235 2145.3048 2138.5422 2129.4387 2111.2317 2122.6761 2142.4437 
1716 1991 2117.214 2127.3579 2110.7115 2104.4691 2125.017 2126.3175 2129.9589 2130.9993 2129.9589 2135.6811 2115.9135 2097.4464 2105.7696 2129.6988 
1714 1997 2120.0751 2129.1786 2115.6534 2104.9893 2115.6534 2127.3579 2122.416 2123.9766 2129.6988 2118.7746 2120.8554 2103.1686 2112.7923 2132.5599 
1710 2008 2136.2013 2141.9235 2131.2594 2122.6761 2158.83 2143.4841 2116.6938 2129.1786 2139.0624 2131.7796 2133.8604 2119.815 2130.7392 2144.7846 
1707 2012 2145.825 2155.9689 2137.7619 2134.3806 2169.234 2152.0674 2128.6584 2134.6407 2141.6634 2158.0497 2140.8831 2129.9589 2135.421 2150.7669 
1705 2015 2139.0624 2151.8073 2129.9589 2124.7569 2143.4841 2143.4841 2129.4387 2126.0574 2132.2998 2145.0447 2133.8604 2125.2771 2127.3579 2142.4437 
1700 2027 2130.219 2138.5422 2120.8554 2113.5726 2142.7038 2139.8427 2122.6761 2118.7746 2126.0574 2129.1786 2125.2771 2116.4337 2120.0751 2134.3806 
1699 2030 2134.1205 2142.1836 2122.1559 2117.7342 2151.8073 2148.426 2134.3806 2130.219 2136.9816 2139.5826 2131.2594 2119.815 2124.4968 2138.022 
1694 2013 2131.2594 2142.1836 2119.0347 2115.3933 2133.3402 2140.1028 2138.022 2134.1205 2142.4437 2132.2998 2130.9993 2119.2948 2123.1963 2135.1609 
1692 2000 2119.815 2127.0978 2110.1913 2103.4287 2133.8604 2129.1786 2127.3579 2126.0574 2130.7392 2123.1963 2118.5145 2110.9716 2110.7115 2127.618 
1687 1976 2131.5195 2134.6407 2121.6357 2109.6711 2162.2113 2145.3048 2136.2013 2134.6407 2132.2998 2145.5649 2128.6584 2122.9362 2119.5549 2140.623 
1684 1971 2142.9639 2149.2063 2131.5195 2120.0751 2146.6053 2148.6861 2141.1432 2142.1836 2142.9639 2144.7846 2140.1028 2133.6003 2131.7796 2148.6861 
1678 1970 2134.3806 2143.4841 2125.2771 2116.9539 2121.6357 2137.7619 2132.82 2134.9008 2140.623 2130.219 2133.6003 2127.618 2126.0574 2140.1028 
1674 1973 2140.8831 2145.825 2132.5599 2122.416 2155.1886 2153.1078 2141.1432 2141.6634 2144.0043 2148.6861 2143.4841 2136.2013 2132.82 2146.8654 
1664 1972 2144.5245 2148.1659 2133.6003 2121.1155 2167.9335 2160.6507 2145.3048 2145.3048 2143.224 2155.4487 2142.7038 2135.9412 2133.6003 2147.9058 
1657 1967 2122.416 2130.9993 2113.3125 2103.6888 2123.4564 2136.7215 2125.017 2126.5776 2124.7569 2138.022 2116.6938 2112.7923 2108.3706 2127.618 
1651 1961 2120.8554 2128.9185 2114.3529 2106.2898 2123.7165 2133.3402 2117.4741 2121.6357 2127.0978 2129.9589 2117.214 2114.0928 2107.5903 2127.3579 
1640 1955 2133.3402 2136.9816 2126.8377 2115.6534 2158.0497 2146.3452 2127.8781 2131.5195 2142.1836 2133.3402 2132.5599 2126.3175 2123.7165 2141.4033 
1637 1951 2126.3175 2133.0801 2117.9943 2108.1105 2147.6457 2140.623 2125.017 2129.6988 2131.2594 2135.6811 2126.3175 2116.4337 2118.5145 2138.2821 
1629 1947 2124.4968 2139.3225 2114.613 2107.8504 2127.8781 2139.8427 2122.9362 2131.7796 2127.618 2142.4437 2127.0978 2112.5322 2117.9943 2137.2417 
1623 1944 2125.5372 2138.2821 2114.3529 2104.209 2139.0624 2141.6634 2130.4791 2136.4614 2143.7442 2140.3629 2130.219 2112.7923 2122.1559 2137.2417 
1619 1942 2107.8504 2113.8327 2096.6661 2085.4818 2142.7038 2129.4387 2127.0978 2126.8377 2139.3225 2126.8377 2114.0928 2095.1055 2106.2898 2121.3756 
1617 1938 2110.4514 2119.815 2099.7873 2092.2444 2136.9816 2137.2417 2131.7796 2129.4387 2131.7796 2131.2594 2117.4741 2098.2267 2106.81 2122.1559 
1614 1935 2130.219 2144.5245 2116.6938 2110.1913 2141.4033 2151.8073 2143.4841 2140.3629 2144.0043 2147.1255 2134.6407 2115.3933 2123.7165 2137.2417 
1613 1933 2129.4387 2139.8427 2112.012 2104.209 2141.9235 2145.0447 2141.4033 2137.2417 2143.4841 2153.628 2133.6003 2111.4918 2123.9766 2135.6811 
1618 1929 2124.4968 2126.8377 2105.7696 2097.9666 2142.4437 2138.5422 2134.3806 2134.3806 2124.2367 2146.0851 2130.9993 2107.5903 2123.7165 2132.2998 
1619 1928 2126.8377 2125.7973 2109.411 2100.8277 2150.5068 2140.623 2134.6407 2134.9008 2122.9362 2137.7619 2131.5195 2112.7923 2126.3175 2140.1028 
1625 1927 2126.3175 2127.3579 2108.8908 2101.0878 2143.224 2134.3806 2133.8604 2129.4387 2138.022 2133.8604 2127.3579 2114.0928 2119.5549 2142.1836 
1627 1928 2135.1609 2142.7038 2117.7342 2112.2721 2129.9589 2139.8427 2134.1205 2132.82 2144.5245 2137.2417 2135.1609 2124.7569 2123.9766 2145.0447 
1628 1928 2144.0043 2154.6684 2127.618 2121.8958 2140.1028 2150.7669 2136.7215 2139.0624 2141.6634 2150.7669 2145.5649 2134.6407 2134.9008 2151.2871 
1632 1927 2127.0978 2134.9008 2112.2721 2106.5499 2145.0447 2134.9008 2123.4564 2124.4968 2132.0397 2142.9639 2129.4387 2116.9539 2119.815 2139.0624 
1634 1928 2109.9312 2114.8731 2096.6661 2092.5045 2132.0397 2121.3756 2111.4918 2109.6711 2121.8958 2119.0347 2111.7519 2099.007 2102.3883 2123.9766 
1636 1932 2114.0928 2120.3352 2102.6484 2096.9262 2130.219 2127.3579 2115.1332 2115.9135 2123.4564 2122.9362 2117.9943 2105.5095 2108.6307 2127.0978 
1636 1933 2126.0574 2136.9816 2116.1736 2110.1913 2143.224 2135.1609 2121.6357 2127.0978 2136.2013 2151.8073 2130.219 2118.7746 2115.6534 2135.9412 
1638 1938 2134.3806 2141.9235 2122.1559 2116.6938 2145.825 2138.5422 2125.7973 2130.9993 2140.8831 2152.0674 2129.1786 2122.416 2115.1332 2139.3225 
1638 1939 2133.6003 2133.0801 2117.9943 2113.5726 2135.9412 2135.6811 2125.017 2128.1382 2130.4791 2121.8958 2119.815 2116.1736 2111.4918 2138.022 
1638 1940 2130.4791 2132.5599 2116.1736 2110.7115 2132.5599 2129.6988 2125.017 2124.4968 2123.1963 2119.0347 2118.5145 2113.5726 2108.3706 2137.5018 
1637 1941 2128.6584 2135.1609 2117.7342 2109.1509 2137.2417 2128.9185 2128.1382 2123.4564 2121.8958 2142.4437 2117.7342 2114.613 2104.209 2136.4614 
1635 1943 2133.0801 2138.5422 2122.1559 2117.4741 2148.1659 2138.8023 2132.2998 2126.3175 2121.6357 2145.0447 2116.6938 2117.214 2108.3706 2138.2821 
1633 1944 2142.4437 2150.2467 2128.3983 2131.5195 2144.2644 2141.4033 2134.1205 2129.6988 2126.3175 2127.0978 2125.017 2124.2367 2120.3352 2144.0043 
1634 1944 2142.7038 2155.4487 2129.6988 2132.0397 2128.3983 2133.6003 2129.6988 2126.5776 2131.2594 2129.4387 2127.618 2126.0574 2119.5549 2144.2644 
1633 1944 2130.7392 2143.7442 2120.3352 2122.9362 2132.0397 2128.9185 2120.5953 2117.7342 2124.2367 2139.8427 2115.6534 2115.9135 2107.3302 2134.6407 
1631 1943 2120.3352 2128.1382 2113.0524 2115.9135 2148.6861 2127.8781 2112.7923 2112.7923 2115.9135 2131.5195 2110.1913 2107.0701 2103.1686 2127.8781 
1630 1941 2116.6938 2121.6357 2112.2721 2108.8908 2140.1028 2124.4968 2113.3125 2114.3529 2121.1155 2127.3579 2118.5145 2107.3302 2109.411 2129.9589 
1631 1939 2116.6938 2128.9185 2111.2317 2109.1509 2118.7746 2120.0751 2114.8731 2117.214 2127.8781 2136.7215 2121.8958 2109.6711 2113.0524 2130.4791 
1631 1935 2120.5953 2139.3225 2113.5726 2118.5145 2126.5776 2121.6357 2114.613 2120.0751 2129.6988 2134.3806 2122.9362 2114.0928 2111.7519 2129.9589 
1629 1934 2124.4968 2132.2998 2116.9539 2114.8731 2139.3225 2126.8377 2118.2544 2123.1963 2132.0397 2128.6584 2124.2367 2116.6938 2112.7923 2134.1205 
1627 1929 2119.815 2117.9943 2111.4918 2103.4287 2139.5826 2125.017 2120.8554 2125.017 2128.3983 2137.7619 2113.8327 2107.8504 2106.81 2132.0397 
1626 1926 2114.0928 2117.9943 2104.9893 2106.2898 2135.1609 2118.2544 2122.1559 2126.8377 2124.2367 2138.022 2103.1686 2101.3479 2097.7065 2124.2367 
1621 1917 2116.4337 2127.0978 2109.9312 2114.613 2123.9766 2118.7746 2126.0574 2130.9993 2129.6988 2130.4791 2108.8908 2107.3302 2100.3075 2123.9766 
1618 1912 2121.3756 2132.2998 2116.6938 2117.214 2122.9362 2123.7165 2127.618 2131.2594 2134.6407 2127.3579 2113.0524 2110.9716 2107.0701 2129.1786 
1612 1901 2120.8554 2131.5195 2114.0928 2119.2948 2131.2594 2122.6761 2124.2367 2126.5776 2129.9589 2120.5953 2104.9893 2104.9893 2104.7292 2130.219 
1611 1897 2120.3352 2130.9993 2112.5322 2121.8958 2133.3402 2122.1559 2122.6761 2124.4968 2124.7569 2126.8377 2108.1105 2107.0701 2103.9489 2130.4791 
1610 1895 2123.4564 2131.7796 2116.4337 2120.3352 2130.9993 2122.1559 2119.815 2122.416 2114.613 2143.224 2117.4741 2113.3125 2108.8908 2133.0801 
1610 1895 2122.1559 2126.8377 2115.1332 2115.6534 2130.9993 2118.7746 2114.3529 2115.1332 2102.3883 2131.7796 2112.5322 2108.3706 2106.5499 2131.7796 
1612 1895 2120.0751 2125.017 2112.2721 2113.5726 2130.9993 2120.5953 2116.1736 2110.9716 2110.1913 2112.5322 2109.6711 2107.5903 2103.4287 2130.4791 
1616 1892 2122.9362 2131.2594 2114.3529 2114.0928 2133.8604 2125.5372 2123.7165 2118.2544 2126.5776 2126.8377 2114.8731 2116.6938 2107.0701 2133.6003 
1619 1891 2121.6357 2127.618 2114.0928 2114.3529 2138.5422 2122.1559 2123.1963 2122.1559 2125.5372 2129.6988 2109.9312 2114.0928 2105.2494 2132.2998 
1623 1893 2117.7342 2123.7165 2114.0928 2116.6938 2130.4791 2116.9539 2119.5549 2120.3352 2120.5953 2108.8908 2106.0297 2107.5903 2103.1686 2130.219 
1626 1898 2116.6938 2129.1786 2115.1332 2117.7342 2120.3352 2115.6534 2120.5953 2124.4968 2127.8781 2118.2544 2112.5322 2111.4918 2104.9893 2131.5195 
1629 1907 2112.2721 2122.416 2108.8908 2112.012 2123.7165 2113.0524 2122.416 2128.9185 2132.82 2139.8427 2109.9312 2108.6307 2100.8277 2126.8377 
1630 1914 2111.7519 2116.9539 2104.7292 2111.4918 2132.0397 2115.9135 2124.4968 2130.219 2131.2594 2135.421 2105.7696 2100.8277 2098.4868 2123.1963 
1631 1928 2117.9943 2126.8377 2109.411 2116.4337 2134.9008 2121.3756 2130.4791 2133.6003 2129.6988 2124.2367 2113.3125 2105.7696 2105.2494 2129.9589 
1633 1935 2117.9943 2124.4968 2108.8908 2109.9312 2127.8781 2117.9943 2135.6811 2132.5599 2125.017 2125.017 2111.7519 2107.5903 2102.9085 2132.82 
1638 1946 2117.7342 2116.9539 2105.2494 2107.3302 2123.7165 2113.3125 2128.1382 2123.9766 2121.3756 2127.8781 2106.5499 2106.2898 2097.1863 2130.4791 
1640 1950 2121.6357 2122.6761 2109.1509 2113.8327 2133.0801 2115.3933 2115.1332 2118.7746 2122.1559 2126.0574 2113.5726 2114.0928 2104.7292 2134.1205 
1641 1954 2117.9943 2125.017 2108.8908 2110.7115 2138.5422 2116.1736 2112.012 2117.4741 2122.9362 2120.0751 2116.9539 2119.815 2109.6711 2135.1609 
1648 1963 2115.1332 2127.0978 2105.5095 2110.9716 2126.8377 2113.8327 2115.3933 2115.6534 2122.416 2121.8958 2113.0524 2122.6761 2106.0297 2130.9993 
1651 1965 2120.8554 2133.6003 2109.1509 2118.7746 2117.9943 2115.3933 2116.4337 2116.1736 2119.815 2132.5599 2115.3933 2131.5195 2106.81 2130.9993 
1656 1967 2116.6938 2124.2367 2105.7696 2110.9716 2134.1205 2115.6534 2115.3933 2115.1332 2115.9135 2127.8781 2114.0928 2131.2594 2104.4691 2128.9185 
1659 1967 2109.411 2118.5145 2096.406 2103.6888 2138.022 2111.7519 2116.9539 2113.5726 2116.6938 2117.7342 2105.7696 2124.2367 2096.9262 2123.7165 
1664 1960 2115.9135 2130.4791 2099.7873 2115.1332 2124.7569 2114.3529 2120.3352 2117.4741 2121.6357 2121.8958 2104.209 2128.3983 2100.3075 2126.0574 
1666 1955 2128.3983 2138.8023 2112.5322 2124.7569 2132.0397 2128.3983 2130.219 2128.1382 2128.9185 2130.9993 2113.3125 2140.623 2110.9716 2135.1609 
1669 1936 2131.2594 2138.2821 2115.1332 2122.9362 2143.4841 2133.8604 2134.3806 2133.6003 2130.9993 2130.219 2116.4337 2144.2644 2112.5322 2138.8023 
1667 1923 2124.7569 2134.3806 2107.8504 2117.7342 2126.0574 2120.8554 2126.3175 2127.0978 2120.5953 2119.815 2109.1509 2139.3225 2106.2898 2136.4614 
1657 1944 2120.8554 2127.3579 2106.5499 2112.012 2108.8908 2113.0524 2121.8958 2123.4564 2113.3125 2120.5953 2108.8908 2140.8831 2104.4691 2135.421 
1652 1988 2117.4741 2116.4337 2106.5499 2107.3302 2125.7973 2115.9135 2123.7165 2123.1963 2115.6534 2129.1786 2109.6711 2140.1028 2101.8681 2132.82 
1644 2043 2113.3125 2115.1332 2102.6484 2105.7696 2135.6811 2114.3529 2122.1559 2119.0347 2118.5145 2120.8554 2104.7292 2131.7796 2099.7873 2128.1382 
1647 2011 2114.613 2123.9766 2102.3883 2107.5903 2120.8554 2114.3529 2119.815 2118.5145 2118.5145 2111.7519 2107.5903 2130.219 2105.2494 2128.6584 
1649 1838 2119.5549 2122.9362 2109.9312 2120.5953 2137.2417 2124.2367 2123.9766 2121.3756 2115.9135 2130.9993 2114.613 2133.8604 2111.7519 2132.2998 
1644 1824 2121.3756 2125.7973 2112.012 2118.5145 2120.0751 2117.7342 2120.5953 2117.7342 2119.5549 2120.5953 2115.9135 2129.4387 2113.0524 2132.82 
1635 1878 2125.7973 2133.6003 2119.2948 2120.0751 2116.6938 2123.9766 2126.0574 2121.8958 2125.2771 2129.6988 2118.7746 2126.3175 2111.4918 2139.8427 
1632 1925 2132.2998 2138.5422 2129.1786 2133.8604 2149.2063 2136.2013 2134.6407 2129.9589 2130.9993 2142.4437 2120.5953 2129.9589 2115.1332 2147.6457 
1630 1983 2127.618 2129.6988 2125.7973 2134.6407 2158.0497 2127.0978 2128.3983 2127.618 2130.4791 2127.3579 2119.815 2135.1609 2116.9539 2142.9639 
1630 1978 2114.613 2117.9943 2114.3529 2123.7165 2137.2417 2112.2721 2119.815 2120.5953 2122.6761 2118.7746 2114.613 2131.2594 2110.4514 2130.219 
1629 1932 2111.7519 2120.3352 2111.4918 2125.7973 2136.4614 2113.5726 2122.6761 2121.3756 2120.5953 2130.4791 2108.1105 2121.3756 2104.209 2123.9766 
1630 1907 2114.0928 2126.3175 2115.6534 2132.5599 2127.0978 2114.613 2123.7165 2124.4968 2127.3579 2125.017 2106.81 2115.3933 2102.1282 2122.416 
1629 1888 2112.5322 2121.3756 2116.9539 2127.8781 2104.9893 2111.7519 2123.1963 2126.3175 2132.0397 2113.8327 2110.7115 2112.7923 2102.3883 2121.1155 
1628 1896 2115.6534 2121.1155 2121.1155 2126.5776 2124.2367 2116.9539 2128.9185 2132.0397 2130.7392 2123.4564 2116.9539 2113.5726 2107.5903 2123.9766 
1626 1934 2121.1155 2129.6988 2126.0574 2132.2998 2152.5876 2117.9943 2127.3579 2132.2998 2123.9766 2129.4387 2117.214 2114.3529 2108.6307 2127.3579 
1628 1952 2119.5549 2131.5195 2124.4968 2131.5195 2135.9412 2113.3125 2120.8554 2124.7569 2120.3352 2120.5953 2112.7923 2115.9135 2104.7292 2126.8377 
1629 1963 2121.6357 2127.3579 2121.6357 2128.6584 2126.5776 2120.8554 2126.3175 2123.4564 2125.017 2125.7973 2114.613 2123.1963 2108.8908 2130.219 
1630 1959 2129.6988 2129.6988 2122.1559 2134.3806 2150.5068 2132.5599 2135.1609 2126.8377 2124.4968 2138.2821 2116.6938 2125.7973 2113.3125 2136.9816 
1631 1952 2128.9185 2132.5599 2121.6357 2138.5422 2146.6053 2128.9185 2129.4387 2122.9362 2114.613 2134.1205 2112.7923 2117.4741 2108.8908 2135.6811 
1630 1941 2115.6534 2117.9943 2114.3529 2126.3175 2113.5726 2112.5322 2114.613 2109.9312 2105.7696 2127.0978 2108.3706 2106.0297 2101.8681 2128.9185 
1627 1943 2114.0928 2108.8908 2114.613 2122.6761 2109.6711 2110.4514 2112.7923 2108.1105 2110.9716 2131.2594 2112.5322 2106.5499 2103.4287 2131.2594 
1618 1958 2123.9766 2122.6761 2124.7569 2137.2417 2130.219 2121.3756 2124.4968 2121.8958 2120.8554 2131.5195 2119.0347 2115.3933 2111.7519 2140.1028 
1614 1968 2118.2544 2120.8554 2120.0751 2134.1205 2140.623 2120.3352 2125.7973 2122.9362 2117.9943 2130.7392 2115.9135 2112.5322 2110.4514 2137.5018 
1608 1989 2104.4691 2099.2671 2106.2898 2116.1736 2131.7796 2112.012 2115.6534 2112.5322 2113.5726 2144.5245 2113.3125 2105.2494 2103.6888 2127.0978 
1607 1994 2102.6484 2095.6257 2104.4691 2115.1332 2117.9943 2112.5322 2113.3125 2115.9135 2121.6357 2143.7442 2113.5726 2107.8504 2103.4287 2123.7165 
1603 1990 2107.8504 2105.7696 2107.3302 2122.6761 2115.1332 2115.3933 2119.0347 2126.5776 2131.5195 2117.4741 2109.9312 2110.7115 2106.0297 2126.3175 
1600 1985 2112.7923 2111.2317 2110.7115 2126.5776 2121.8958 2114.8731 2122.416 2128.6584 2134.1205 2121.6357 2111.7519 2114.3529 2109.6711 2128.1382 
1599 1989 2116.9539 2116.4337 2117.214 2132.82 2125.5372 2115.9135 2121.6357 2124.4968 2131.7796 2144.7846 2118.2544 2122.416 2111.2317 2128.6584 
1598 1998 2115.6534 2115.9135 2117.7342 2131.7796 2120.8554 2116.1736 2120.5953 2126.8377 2128.9185 2136.2013 2114.613 2121.6357 2108.6307 2128.1382 
1598 2013 2108.6307 2105.2494 2113.8327 2121.8958 2122.416 2111.7519 2120.5953 2136.7215 2131.7796 2133.0801 2107.8504 2116.1736 2104.4691 2123.4564 
1602 2039 2108.8908 2107.0701 2118.5145 2123.9766 2126.0574 2112.5322 2123.4564 2134.6407 2133.6003 2144.2644 2113.0524 2120.0751 2106.0297 2123.1963 
1604 2044 2115.3933 2118.2544 2126.5776 2133.0801 2117.214 2118.2544 2123.1963 2116.1736 2121.3756 2130.219 2117.9943 2124.7569 2109.9312 2128.6584 
1608 2038 2115.6534 2115.1332 2128.6584 2134.3806 2122.6761 2120.5953 2115.1332 2104.7292 2110.9716 2117.214 2114.8731 2125.017 2107.3302 2130.9993 
1611 2030 2116.1736 2110.9716 2130.219 2136.4614 2128.3983 2120.5953 2113.5726 2109.411 2116.1736 2135.421 2114.0928 2129.1786 2104.9893 2132.2998 
1615 2015 2124.7569 2118.5145 2135.421 2138.022 2116.9539 2129.1786 2125.2771 2117.4741 2124.2367 2147.9058 2118.2544 2132.5599 2112.012 2138.8023 
1617 2010 2130.7392 2120.3352 2140.1028 2137.5018 2121.1155 2138.022 2132.0397 2122.9362 2123.9766 2135.1609 2118.5145 2130.7392 2117.7342 2143.4841 
1620 2010 2124.2367 2111.7519 2137.7619 2140.623 2129.9589 2130.9993 2124.2367 2122.1559 2120.0751 2124.4968 2111.2317 2126.5776 2109.1509 2139.0624 
1622 2011 2117.214 2105.5095 2133.3402 2138.8023 2115.6534 2119.815 2118.5145 2122.416 2120.3352 2129.9589 2108.1105 2123.4564 2103.6888 2135.421 
1627 2014 2117.7342 2101.0878 2131.5195 2125.7973 2093.805 2120.5953 2122.1559 2130.7392 2124.4968 2138.2821 2110.7115 2123.9766 2109.1509 2138.2821 
1629 2016 2120.3352 2098.4868 2129.9589 2124.7569 2099.5272 2126.3175 2125.7973 2132.0397 2123.9766 2133.0801 2104.4691 2120.5953 2103.9489 2137.5018 
1631 2017 2123.1963 2104.9893 2133.0801 2140.623 2118.7746 2129.6988 2125.7973 2127.8781 2119.5549 2124.4968 2099.5272 2117.9943 2096.6661 2134.9008 
1635 2014 2128.6584 2114.3529 2141.4033 2148.9462 2131.5195 2140.623 2127.8781 2134.9008 2126.0574 2133.6003 2110.1913 2125.7973 2107.8504 2140.3629 
1639 2012 2133.0801 2118.5145 2144.0043 2144.2644 2125.017 2149.2063 2130.7392 2138.022 2134.9008 2146.8654 2119.2948 2131.2594 2119.815 2147.9058 
1648 2017 2129.6988 2114.0928 2138.022 2137.2417 2113.3125 2142.7038 2127.3579 2130.9993 2129.4387 2141.4033 2116.6938 2125.7973 2115.3933 2145.825 
1653 2019 2122.416 2103.9489 2132.82 2132.82 2116.9539 2135.6811 2122.416 2129.6988 2121.6357 2123.1963 2110.4514 2117.7342 2107.3302 2139.0624 
1666 2017 2120.0751 2100.3075 2134.3806 2132.82 2111.2317 2136.9816 2122.1559 2127.0978 2119.2948 2120.5953 2105.5095 2115.9135 2103.4287 2135.9412 
1673 2012 2124.7569 2105.5095 2139.3225 2135.421 2109.6711 2140.623 2124.2367 2115.9135 2116.6938 2134.9008 2105.7696 2120.5953 2103.4287 2138.5422 
1685 2001 2127.8781 2104.7292 2139.3225 2134.6407 2121.1155 2138.5422 2121.3756 2110.7115 2112.012 2130.9993 2106.0297 2122.6761 2102.1282 2139.3225 
1694 1999 2128.9185 2102.3883 2138.2821 2134.1205 2115.3933 2138.022 2119.815 2117.214 2111.2317 2122.9362 2102.6484 2120.5953 2100.5676 2138.2821 
