# H:M:S.f Gyro(x) Gyro(y) F3 FC5 AF3 F7 T7 P7 O1 O2 P8 T8 F8 AF4 FC6 F4
1996 1945 2143.4841 2147.6457 2147.3856 2139.0624 2138.2821 2160.1305 2141.9235 2149.7265 2146.3452 2140.8831 2146.3452 2137.2417 2147.6457 2153.3679 
1997 1938 2149.4664 2154.4083 2153.628 2145.0447 2137.2417 2164.5522 2146.8654 2154.9285 2146.8654 2139.8427 2150.2467 2144.5245 2153.8881 2155.9689 
1996 1936 2147.1255 2155.1886 2149.9866 2143.224 2134.1205 2157.7896 2140.3629 2148.426 2145.825 2130.7392 2147.9058 2142.9639 2149.9866 2152.3275 
1996 1937 2139.0624 2150.7669 2143.4841 2137.2417 2129.4387 2151.5472 2135.9412 2143.7442 2145.0447 2133.0801 2144.2644 2135.421 2143.4841 2148.1659 
1995 1935 2136.2013 2146.6053 2144.5245 2136.9816 2128.3983 2152.3275 2136.9816 2147.6457 2144.7846 2141.1432 2145.825 2132.2998 2144.5245 2145.825 
1995 1934 2141.4033 2148.1659 2146.8654 2141.1432 2134.1205 2155.9689 2138.5422 2152.8477 2147.9058 2134.9008 2151.2871 2134.6407 2151.027 2140.8831 
1995 1934 2147.1255 2154.1482 2149.9866 2144.7846 2144.2644 2157.5295 2140.1028 2154.9285 2152.8477 2128.6584 2153.628 2135.6811 2152.8477 2135.6811 
1994 1935 2148.9462 2157.5295 2155.4487 2146.6053 2142.9639 2155.7088 2139.5826 2154.6684 2151.2871 2141.1432 2151.5472 2138.022 2151.8073 2137.2417 
1994 1937 2149.9866 2154.9285 2156.229 2145.3048 2129.9589 2151.2871 2137.2417 2152.5876 2146.6053 2149.9866 2154.1482 2143.4841 2154.4083 2141.9235 
1993 1936 2151.5472 2151.5472 2155.7088 2142.7038 2133.6003 2151.5472 2139.3225 2155.1886 2150.2467 2140.623 2159.0901 2149.2063 2160.1305 2144.2644 
1994 1934 2154.4083 2155.7088 2162.7315 2146.8654 2149.4664 2156.4891 2144.7846 2161.6911 2155.9689 2138.2821 2162.9916 2155.7088 2163.5118 2149.7265 
1994 1932 2158.3098 2164.5522 2168.4537 2154.1482 2148.426 2157.2694 2146.8654 2164.2921 2156.229 2150.5068 2168.4537 2162.2113 2164.8123 2154.9285 
1994 1929 2155.4487 2161.9512 2163.7719 2150.2467 2135.9412 2149.2063 2144.0043 2162.4714 2155.9689 2149.9866 2167.6734 2159.3502 2163.5118 2150.5068 
1996 1928 2152.5876 2155.9689 2159.6103 2143.4841 2136.9816 2146.3452 2142.9639 2161.9512 2155.4487 2135.1609 2159.8704 2151.8073 2160.1305 2145.5649 
1996 1928 2161.6911 2166.8931 2167.1532 2153.628 2147.6457 2158.3098 2148.6861 2165.0724 2156.7492 2138.2821 2162.2113 2153.628 2163.2517 2149.9866 
1998 1932 2166.1128 2175.2163 2170.7946 2157.7896 2140.623 2161.431 2148.6861 2161.431 2155.7088 2149.2063 2162.9916 2155.4487 2163.2517 2151.5472 
1999 1933 2161.1709 2168.9739 2165.8527 2146.3452 2128.9185 2151.2871 2140.1028 2153.8881 2148.9462 2141.1432 2155.1886 2152.0674 2157.0093 2144.7846 
2005 1937 2160.6507 2169.7542 2169.234 2150.5068 2141.9235 2149.9866 2136.7215 2153.1078 2148.6861 2134.6407 2159.8704 2157.5295 2158.3098 2145.5649 
2007 1939 2157.7896 2170.2744 2172.0951 2154.4083 2150.2467 2151.2871 2137.7619 2154.6684 2153.628 2142.1836 2170.5345 2164.032 2162.9916 2147.3856 
2012 1938 2147.3856 2161.1709 2164.032 2137.5018 2140.623 2146.0851 2140.1028 2155.1886 2154.6684 2147.3856 2170.0143 2159.6103 2163.2517 2142.1836 
2015 1937 2145.0447 2163.7719 2161.431 2138.2821 2140.1028 2146.0851 2144.7846 2155.7088 2154.6684 2142.7038 2169.4941 2156.4891 2162.4714 2137.2417 
2019 1939 2146.3452 2172.8754 2164.8123 2156.7492 2143.7442 2147.3856 2142.4437 2151.5472 2152.5876 2132.0397 2165.0724 2153.8881 2155.9689 2133.0801 
2020 1945 2143.7442 2171.5749 2163.5118 2159.3502 2141.9235 2143.4841 2136.4614 2144.2644 2146.0851 2125.5372 2155.7088 2147.1255 2146.0851 2128.3983 
2021 1953 2148.9462 2174.6961 2169.4941 2159.8704 2147.1255 2145.3048 2141.9235 2145.825 2146.6053 2134.9008 2158.3098 2148.9462 2146.8654 2128.9185 
2023 1958 2154.9285 2186.1405 2179.638 2173.1355 2151.5472 2149.9866 2147.6457 2151.8073 2151.2871 2142.1836 2160.1305 2152.5876 2149.2063 2132.5599 
2028 1966 2151.2871 2189.5218 2179.8981 2179.3779 2146.6053 2146.8654 2140.1028 2148.9462 2148.6861 2133.3402 2148.1659 2148.1659 2140.3629 2131.7796 
2029 1968 2147.9058 2185.8804 2179.8981 2178.5976 2144.5245 2143.7442 2138.2821 2144.2644 2145.3048 2127.8781 2143.7442 2148.9462 2138.2821 2130.7392 
2032 1972 2149.2063 2187.1809 2183.2794 2179.3779 2148.6861 2146.8654 2147.1255 2148.6861 2145.825 2128.3983 2148.9462 2152.8477 2143.4841 2132.5599 
2032 1975 2148.426 2191.3425 2181.7188 2178.0774 2149.4664 2147.6457 2148.6861 2157.5295 2148.426 2128.1382 2149.9866 2149.9866 2143.4841 2132.5599 
2030 1980 2142.9639 2190.042 2177.037 2173.9158 2140.1028 2141.6634 2145.825 2154.9285 2146.6053 2127.3579 2144.7846 2143.224 2135.6811 2129.9589 
2027 1986 2139.8427 2185.6203 2176.5168 2170.0143 2132.0397 2135.6811 2145.5649 2145.0447 2139.3225 2121.6357 2138.5422 2139.5826 2129.4387 2128.6584 
2025 1987 2144.5245 2185.8804 2182.4991 2169.4941 2143.4841 2136.4614 2142.1836 2148.426 2142.9639 2122.9362 2143.224 2142.9639 2133.3402 2130.9993 
2023 1993 2150.5068 2187.441 2188.4814 2170.7946 2153.8881 2139.0624 2136.9816 2156.229 2153.3679 2135.6811 2154.4083 2149.2063 2140.3629 2132.82 
2025 1996 2147.6457 2187.1809 2186.9208 2170.7946 2149.4664 2138.022 2135.9412 2151.027 2151.5472 2138.8023 2152.8477 2149.2063 2138.8023 2132.0397 
2024 2004 2140.8831 2189.0016 2181.1986 2170.0143 2142.4437 2135.6811 2139.0624 2144.0043 2142.1836 2127.3579 2141.6634 2143.224 2130.9993 2128.9185 
2021 2009 2136.7215 2187.441 2178.8577 2165.3325 2135.6811 2133.8604 2139.8427 2144.0043 2138.5422 2122.1559 2138.2821 2139.5826 2129.1786 2125.2771 
2019 2022 2131.7796 2179.3779 2177.2971 2161.6911 2135.1609 2129.1786 2133.6003 2140.623 2136.9816 2119.0347 2139.0624 2139.3225 2128.6584 2122.6761 
2016 2031 2127.0978 2177.8173 2171.5749 2161.9512 2142.7038 2125.017 2128.6584 2136.7215 2135.6811 2108.3706 2133.8604 2137.5018 2120.8554 2119.2948 
2014 2044 2121.6357 2181.1986 2163.5118 2157.7896 2140.8831 2122.9362 2129.1786 2138.022 2137.7619 2108.3706 2128.1382 2131.5195 2112.2721 2110.9716 
2011 2050 2115.9135 2177.8173 2160.3906 2153.1078 2134.9008 2121.3756 2128.3983 2138.022 2138.2821 2117.7342 2127.8781 2131.7796 2111.4918 2105.7696 
2008 2056 2114.8731 2172.8754 2162.2113 2154.6684 2135.9412 2122.416 2132.5599 2139.0624 2137.7619 2122.1559 2130.219 2142.1836 2117.4741 2110.9716 
2001 2064 2116.4337 2172.3552 2160.9108 2153.8881 2130.4791 2123.4564 2139.5826 2144.5245 2137.7619 2120.0751 2132.2998 2148.6861 2120.3352 2115.9135 
1999 2069 2120.3352 2175.7365 2161.1709 2151.5472 2125.2771 2121.1155 2134.9008 2153.3679 2144.2644 2121.3756 2137.7619 2154.9285 2123.1963 2117.9943 
1998 2071 2122.6761 2178.5976 2164.5522 2156.229 2130.219 2120.3352 2125.5372 2151.2871 2149.4664 2123.4564 2140.3629 2164.032 2125.5372 2119.2948 
1998 2069 2118.2544 2173.6557 2163.5118 2154.9285 2133.0801 2122.9362 2130.219 2134.6407 2138.2821 2117.7342 2133.0801 2163.7719 2118.2544 2116.1736 
2000 2059 2113.8327 2165.5926 2159.0901 2144.5245 2133.6003 2123.4564 2140.3629 2129.1786 2128.9185 2112.2721 2126.0574 2158.83 2112.7923 2111.4918 
2002 2056 2121.3756 2174.6961 2162.9916 2148.6861 2141.1432 2124.7569 2136.7215 2141.9235 2138.2821 2114.0928 2133.6003 2166.3729 2122.6761 2116.4337 
2006 2051 2133.3402 2191.8627 2172.0951 2165.5926 2150.2467 2132.82 2128.9185 2149.9866 2148.426 2125.7973 2149.2063 2180.6784 2135.1609 2130.219 
2005 2050 2134.1205 2190.042 2172.0951 2166.1128 2144.2644 2132.5599 2128.9185 2146.8654 2145.3048 2125.017 2148.1659 2179.8981 2133.6003 2131.5195 
2005 2052 2129.1786 2180.9385 2167.4133 2153.1078 2132.2998 2123.9766 2130.7392 2145.0447 2143.224 2113.8327 2137.5018 2172.0951 2128.1382 2122.416 
2000 2053 2130.4791 2185.1001 2170.0143 2152.3275 2135.6811 2127.3579 2133.3402 2148.426 2148.1659 2126.0574 2142.4437 2176.7769 2130.219 2123.4564 
1996 2055 2133.8604 2189.0016 2173.6557 2158.5699 2144.5245 2133.6003 2137.2417 2155.1886 2148.9462 2142.4437 2152.0674 2181.9789 2135.421 2130.219 
1993 2057 2129.6988 2182.4991 2168.9739 2154.9285 2139.5826 2126.5776 2135.1609 2153.628 2146.0851 2128.9185 2147.1255 2174.436 2133.8604 2125.5372 
1989 2055 2122.6761 2174.6961 2161.1709 2146.3452 2133.3402 2119.0347 2128.3983 2146.8654 2145.0447 2113.8327 2137.7619 2163.7719 2125.2771 2118.5145 
1982 2049 2125.017 2174.6961 2160.3906 2144.5245 2137.2417 2122.1559 2130.9993 2149.9866 2145.3048 2124.4968 2138.5422 2161.1709 2125.7973 2120.8554 
1979 2046 2131.5195 2182.239 2166.633 2148.1659 2141.9235 2128.9185 2141.1432 2157.5295 2147.3856 2132.82 2144.5245 2165.5926 2132.0397 2127.0978 
1973 2039 2132.2998 2180.6784 2167.6734 2146.0851 2137.7619 2128.1382 2147.1255 2161.431 2154.1482 2129.1786 2146.0851 2165.8527 2131.2594 2130.9993 
1968 2037 2133.3402 2167.6734 2162.9916 2136.4614 2129.4387 2123.4564 2147.1255 2168.1936 2162.4714 2130.219 2145.825 2161.1709 2133.6003 2131.5195 
1963 2044 2139.3225 2169.7542 2162.9916 2133.8604 2134.9008 2125.7973 2144.0043 2165.5926 2156.229 2122.416 2147.3856 2160.3906 2138.5422 2132.2998 
1960 2054 2139.3225 2183.5395 2163.7719 2143.4841 2143.224 2127.3579 2138.2821 2145.3048 2140.3629 2111.4918 2146.3452 2161.6911 2132.0397 2131.7796 
1956 2081 2136.2013 2185.6203 2163.2517 2152.5876 2138.2821 2125.017 2128.1382 2133.6003 2135.9412 2123.9766 2144.5245 2161.6911 2129.1786 2129.1786 
1954 2095 2141.4033 2184.0597 2169.4941 2153.628 2140.8831 2132.2998 2127.618 2145.0447 2146.8654 2145.5649 2153.8881 2167.6734 2142.1836 2132.0397 
1948 2115 2144.7846 2185.3602 2171.0547 2149.9866 2148.426 2140.1028 2140.3629 2157.5295 2156.7492 2144.5245 2160.1305 2172.6153 2148.426 2138.5422 
1944 2120 2139.5826 2180.9385 2162.9916 2148.426 2139.5826 2132.2998 2144.2644 2155.4487 2155.9689 2130.7392 2155.9689 2168.7138 2143.4841 2138.2821 
1939 2109 2136.2013 2175.2163 2160.1305 2147.1255 2136.7215 2126.5776 2142.4437 2151.2871 2153.628 2128.9185 2157.2694 2166.3729 2144.2644 2136.4614 
1932 2093 2140.1028 2176.2567 2163.2517 2144.7846 2145.3048 2133.0801 2146.6053 2157.5295 2157.5295 2133.0801 2161.9512 2166.8931 2148.1659 2139.5826 
1931 2070 2149.2063 2184.3198 2169.234 2155.1886 2148.1659 2137.2417 2141.6634 2162.2113 2163.2517 2139.3225 2168.9739 2171.0547 2155.4487 2146.8654 
1926 2029 2155.4487 2191.6026 2176.5168 2171.5749 2146.8654 2137.7619 2128.9185 2155.4487 2162.2113 2146.8654 2177.8173 2178.5976 2164.2921 2153.628 
1922 2021 2155.7088 2189.0016 2178.8577 2168.1936 2143.7442 2141.4033 2133.0801 2155.9689 2162.4714 2148.1659 2180.6784 2180.9385 2164.8123 2154.9285 
1921 2031 2154.6684 2181.7188 2174.9562 2157.5295 2140.3629 2145.3048 2146.8654 2162.9916 2162.2113 2149.7265 2179.8981 2176.7769 2160.9108 2153.3679 
1920 2043 2158.0497 2182.4991 2173.9158 2166.1128 2145.0447 2146.8654 2144.5245 2158.3098 2155.1886 2157.7896 2183.0193 2178.8577 2165.0724 2155.9689 
1923 2065 2157.2694 2179.8981 2170.7946 2171.5749 2150.5068 2147.3856 2145.0447 2161.431 2158.5699 2152.0674 2180.6784 2180.4183 2166.633 2155.7088 
1923 2069 2146.8654 2166.633 2159.3502 2162.4714 2143.224 2143.4841 2159.8704 2173.3956 2162.7315 2131.2594 2166.633 2168.7138 2152.3275 2146.0851 
1923 2068 2150.5068 2170.7946 2162.2113 2171.835 2144.0043 2147.1255 2160.6507 2168.7138 2155.4487 2139.3225 2169.7542 2170.0143 2152.8477 2148.426 
1921 2065 2169.7542 2194.4637 2182.4991 2195.244 2155.7088 2161.6911 2144.0043 2158.5699 2158.0497 2165.3325 2192.9031 2191.3425 2175.2163 2164.5522 
1916 2061 2169.4941 2194.2036 2182.4991 2196.2844 2152.8477 2156.229 2132.82 2156.7492 2165.5926 2161.1709 2191.6026 2187.9612 2174.1759 2163.2517 
1915 2057 2150.5068 2169.7542 2161.1709 2179.3779 2138.8023 2135.6811 2130.219 2148.1659 2145.3048 2138.8023 2162.4714 2161.431 2149.9866 2145.3048 
1915 2053 2150.2467 2167.1532 2160.3906 2179.1178 2133.0801 2139.3225 2130.219 2144.0043 2127.0978 2130.9993 2159.8704 2161.431 2149.2063 2144.7846 
1916 2051 2160.1305 2172.6153 2169.7542 2186.1405 2134.6407 2150.5068 2133.8604 2153.1078 2143.4841 2135.421 2178.3375 2174.436 2159.6103 2153.1078 
1917 2053 2152.0674 2159.6103 2160.3906 2180.6784 2137.2417 2144.7846 2138.8023 2155.1886 2149.9866 2141.4033 2171.0547 2165.0724 2153.1078 2147.9058 
1920 2064 2148.426 2159.6103 2154.9285 2181.9789 2144.5245 2148.9462 2145.3048 2154.4083 2139.0624 2149.4664 2162.4714 2158.5699 2151.5472 2146.0851 
1922 2073 2155.1886 2170.0143 2159.8704 2191.0824 2143.7442 2160.6507 2148.9462 2159.3502 2145.825 2146.6053 2168.4537 2165.3325 2158.0497 2152.0674 
1930 2086 2148.426 2155.7088 2152.8477 2179.1178 2133.6003 2151.8073 2136.9816 2154.6684 2152.0674 2134.6407 2160.3906 2158.5699 2151.8073 2147.3856 
1934 2092 2134.1205 2135.9412 2141.4033 2160.1305 2127.8781 2138.022 2128.6584 2137.2417 2138.2821 2123.1963 2148.1659 2145.0447 2141.1432 2136.4614 
1941 2090 2137.7619 2140.8831 2145.0447 2164.2921 2124.4968 2141.4033 2135.9412 2135.421 2134.9008 2123.4564 2155.4487 2149.2063 2145.3048 2139.8427 
1942 2088 2149.2063 2152.3275 2154.4083 2173.9158 2131.7796 2151.027 2135.9412 2152.0674 2147.1255 2143.7442 2168.4537 2161.431 2158.83 2151.5472 
1946 2076 2148.9462 2152.8477 2156.4891 2172.6153 2142.1836 2153.1078 2129.4387 2157.2694 2154.6684 2155.7088 2170.5345 2162.9916 2162.2113 2152.3275 
1945 2068 2146.8654 2153.8881 2153.8881 2174.1759 2143.224 2156.229 2136.2013 2153.8881 2161.6911 2144.0043 2167.9335 2158.3098 2158.3098 2148.9462 
1948 2059 2145.825 2154.4083 2149.2063 2178.0774 2138.8023 2158.3098 2142.9639 2153.1078 2161.1709 2135.6811 2160.1305 2152.5876 2153.3679 2146.6053 
1948 2059 2140.3629 2148.9462 2144.2644 2174.6961 2140.623 2155.1886 2138.022 2149.7265 2149.7265 2142.9639 2155.7088 2147.9058 2149.2063 2141.4033 
1950 2061 2138.2821 2142.9639 2142.1836 2165.8527 2145.5649 2154.1482 2135.1609 2146.6053 2142.4437 2146.6053 2160.6507 2148.6861 2148.426 2138.5422 
1952 2071 2137.5018 2136.9816 2137.5018 2157.2694 2139.5826 2149.9866 2133.0801 2145.825 2137.5018 2139.0624 2157.5295 2145.3048 2144.2644 2137.5018 
1953 2077 2135.1609 2135.421 2133.0801 2152.3275 2132.82 2144.5245 2128.3983 2141.6634 2138.022 2135.421 2149.9866 2137.7619 2141.4033 2134.1205 
1950 2090 2136.9816 2141.1432 2137.2417 2154.9285 2142.4437 2150.5068 2128.9185 2141.4033 2154.1482 2137.7619 2154.9285 2143.224 2149.2063 2135.9412 
1949 2098 2140.3629 2142.7038 2140.3629 2157.5295 2147.6457 2154.4083 2130.9993 2145.3048 2163.2517 2140.623 2157.7896 2147.9058 2151.2871 2137.7619 
1950 2101 2137.7619 2136.4614 2137.5018 2152.0674 2139.0624 2147.3856 2131.5195 2147.3856 2155.1886 2138.8023 2145.825 2139.8427 2140.623 2133.6003 
1949 2101 2137.5018 2136.4614 2137.2417 2146.6053 2142.7038 2149.4664 2131.7796 2145.5649 2152.5876 2137.5018 2144.5245 2139.5826 2139.3225 2134.6407 
1951 2094 2138.2821 2138.022 2133.6003 2142.1836 2147.6457 2152.3275 2128.3983 2138.2821 2153.1078 2137.2417 2154.6684 2144.0043 2147.1255 2138.2821 
1950 2089 2136.9816 2136.7215 2129.9589 2141.4033 2140.623 2149.7265 2128.6584 2136.2013 2153.1078 2135.1609 2156.7492 2143.7442 2148.9462 2138.022 
1954 2080 2140.3629 2141.9235 2135.6811 2146.6053 2145.0447 2154.9285 2132.2998 2139.8427 2155.4487 2139.5826 2156.229 2145.0447 2148.1659 2140.3629 
1956 2077 2136.7215 2139.5826 2133.3402 2141.4033 2142.9639 2149.7265 2124.7569 2133.6003 2148.426 2140.1028 2153.628 2141.1432 2144.5245 2138.022 
1959 2077 2133.0801 2134.6407 2129.1786 2135.421 2135.6811 2144.7846 2121.6357 2134.1205 2147.6457 2132.82 2153.3679 2140.3629 2146.6053 2137.5018 
1961 2081 2142.7038 2144.0043 2138.022 2144.5245 2151.2871 2160.3906 2132.2998 2146.6053 2161.1709 2140.3629 2157.0093 2152.3275 2155.9689 2147.1255 
1963 2083 2142.9639 2143.224 2137.5018 2145.5649 2157.2694 2159.0901 2132.0397 2144.7846 2158.3098 2151.027 2151.5472 2150.2467 2151.5472 2145.3048 
1965 2080 2126.5776 2124.7569 2122.1559 2129.4387 2136.7215 2137.5018 2121.6357 2137.2417 2143.4841 2139.3225 2142.9639 2134.1205 2138.5422 2133.8604 
1965 2079 2121.8958 2121.1155 2117.7342 2126.3175 2131.7796 2138.022 2119.2948 2134.6407 2147.3856 2125.5372 2144.5245 2133.6003 2138.022 2134.3806 
1967 2069 2130.9993 2132.2998 2126.3175 2135.1609 2142.1836 2149.9866 2121.8958 2133.6003 2157.5295 2132.5599 2148.426 2140.3629 2146.3452 2140.1028 
1967 2063 2132.2998 2131.2594 2127.618 2132.0397 2141.6634 2147.6457 2122.9362 2135.1609 2154.4083 2139.8427 2146.3452 2138.5422 2146.0851 2139.3225 
1970 2047 2128.6584 2127.8781 2123.9766 2127.3579 2137.7619 2144.2644 2121.1155 2133.0801 2148.426 2138.2821 2145.825 2136.9816 2140.1028 2138.2821 
1972 2036 2132.5599 2134.6407 2126.5776 2134.6407 2138.022 2146.8654 2119.2948 2127.3579 2147.6457 2137.7619 2146.8654 2139.0624 2141.6634 2139.5826 
1977 2017 2137.7619 2135.421 2132.0397 2139.3225 2142.1836 2150.7669 2121.1155 2131.2594 2146.3452 2134.1205 2146.6053 2139.5826 2146.8654 2143.4841 
1979 2007 2136.4614 2130.9993 2129.6988 2133.0801 2146.0851 2153.3679 2124.2367 2138.022 2144.0043 2128.3983 2144.7846 2137.5018 2144.2644 2145.825 
1983 1992 2138.022 2135.9412 2129.4387 2133.0801 2147.1255 2153.628 2127.618 2137.5018 2148.6861 2135.1609 2146.6053 2141.1432 2144.2644 2147.9058 
1982 1988 2145.0447 2142.4437 2136.7215 2142.4437 2143.7442 2155.4487 2132.0397 2140.1028 2155.1886 2146.0851 2149.4664 2147.3856 2148.9462 2152.3275 
1981 1986 2141.6634 2134.6407 2135.421 2140.1028 2138.8023 2153.1078 2128.3983 2140.623 2149.7265 2141.4033 2143.224 2142.9639 2143.7442 2150.7669 
1977 1985 2134.1205 2127.8781 2128.9185 2130.7392 2138.022 2147.1255 2122.1559 2136.7215 2144.5245 2135.1609 2136.4614 2136.4614 2136.4614 2145.0447 
1974 1985 2136.4614 2131.7796 2129.6988 2129.9589 2136.2013 2145.825 2125.5372 2137.5018 2146.6053 2139.0624 2138.022 2138.2821 2138.2821 2146.8654 
1972 1983 2137.7619 2130.219 2131.5195 2130.9993 2139.3225 2148.9462 2128.3983 2140.1028 2144.5245 2134.9008 2139.8427 2140.1028 2139.8427 2151.2871 
1972 1981 2134.9008 2125.7973 2132.2998 2130.7392 2152.5876 2152.8477 2127.3579 2139.5826 2145.3048 2128.9185 2138.2821 2138.5422 2139.3225 2150.2467 
1975 1978 2128.3983 2121.8958 2127.618 2127.3579 2150.5068 2144.5245 2120.8554 2131.7796 2144.2644 2130.7392 2131.5195 2130.4791 2132.0397 2146.0851 
1975 1976 2123.9766 2119.0347 2122.9362 2123.9766 2136.7215 2136.4614 2116.4337 2127.8781 2137.5018 2131.5195 2127.3579 2123.9766 2126.0574 2145.5649 
1976 1970 2132.5599 2126.8377 2130.4791 2130.219 2145.5649 2150.7669 2128.1382 2139.3225 2143.224 2136.2013 2139.0624 2132.5599 2138.2821 2153.8881 
1976 1967 2138.022 2131.2594 2135.1609 2134.9008 2154.6684 2157.7896 2134.1205 2145.3048 2150.5068 2137.5018 2146.3452 2137.2417 2145.825 2159.3502 
1975 1964 2129.4387 2122.1559 2124.7569 2130.219 2140.8831 2139.8427 2120.3352 2133.8604 2139.5826 2133.6003 2135.1609 2128.9185 2133.3402 2151.8073 
1972 1962 2126.5776 2118.5145 2120.3352 2128.3983 2132.0397 2132.5599 2114.613 2128.3983 2133.3402 2137.7619 2132.0397 2126.8377 2130.9993 2149.7265 
1973 1958 2132.0397 2124.4968 2125.2771 2129.1786 2136.4614 2143.7442 2123.4564 2132.82 2140.1028 2136.4614 2138.022 2128.1382 2139.0624 2153.628 
1973 1959 2129.1786 2122.6761 2123.4564 2125.7973 2138.2821 2145.825 2122.6761 2130.7392 2140.1028 2124.2367 2132.82 2122.1559 2132.2998 2151.027 
1972 1957 2126.3175 2119.815 2120.5953 2126.8377 2135.9412 2143.224 2119.5549 2131.7796 2140.1028 2129.9589 2127.8781 2120.8554 2126.0574 2147.6457 
1968 1955 2131.7796 2131.2594 2126.5776 2131.7796 2144.0043 2147.3856 2125.017 2134.3806 2142.7038 2133.6003 2139.5826 2124.7569 2135.9412 2147.6457 
1967 1949 2128.6584 2129.1786 2124.2367 2130.7392 2149.7265 2145.825 2121.8958 2127.618 2136.7215 2130.7392 2132.5599 2121.8958 2129.1786 2145.5649 
1966 1945 2129.9589 2130.219 2123.1963 2135.1609 2147.3856 2146.8654 2122.6761 2128.3983 2137.2417 2136.7215 2132.2998 2122.6761 2130.7392 2150.7669 
1965 1934 2132.5599 2132.0397 2123.1963 2137.2417 2146.6053 2152.0674 2126.8377 2131.2594 2140.8831 2138.8023 2138.2821 2123.1963 2135.6811 2154.6684 
1961 1931 2131.2594 2131.5195 2124.4968 2134.6407 2149.2063 2153.3679 2125.7973 2133.0801 2142.4437 2136.9816 2137.7619 2122.6761 2135.421 2153.628 
1953 1930 2134.9008 2135.6811 2129.4387 2137.7619 2148.1659 2150.7669 2121.1155 2139.0624 2147.3856 2134.9008 2137.5018 2127.0978 2139.0624 2154.4083 
1950 1934 2139.3225 2139.8427 2129.1786 2139.3225 2142.7038 2147.9058 2121.3756 2146.8654 2154.4083 2140.1028 2141.9235 2129.9589 2146.0851 2155.9689 
1945 1939 2134.3806 2133.3402 2121.6357 2132.5599 2142.9639 2144.2644 2122.1559 2145.825 2154.9285 2149.7265 2141.1432 2123.9766 2143.224 2154.4083 
1944 1937 2129.1786 2128.9185 2122.6761 2132.0397 2148.9462 2144.7846 2121.1155 2140.3629 2153.3679 2148.6861 2139.8427 2124.2367 2138.8023 2152.8477 
1942 1935 2130.9993 2135.9412 2130.7392 2139.5826 2146.8654 2148.426 2124.2367 2141.4033 2154.4083 2140.8831 2144.2644 2132.0397 2143.224 2154.4083 
1943 1936 2132.2998 2140.623 2131.7796 2141.4033 2144.2644 2148.1659 2129.6988 2143.7442 2154.1482 2137.5018 2145.5649 2131.7796 2146.6053 2154.1482 
1945 1937 2132.2998 2139.8427 2133.0801 2139.5826 2150.7669 2147.6457 2131.5195 2143.4841 2153.3679 2139.0624 2145.3048 2129.6988 2146.0851 2152.8477 
1948 1938 2132.82 2140.1028 2137.7619 2139.8427 2151.2871 2148.426 2130.9993 2145.5649 2155.1886 2142.7038 2145.825 2129.9589 2146.0851 2153.628 
1950 1938 2131.2594 2140.623 2136.7215 2139.5826 2143.224 2147.3856 2130.7392 2145.5649 2152.3275 2141.9235 2142.4437 2125.017 2144.5245 2152.3275 
1949 1939 2130.7392 2140.623 2132.2998 2137.2417 2138.2821 2145.5649 2129.4387 2141.1432 2146.8654 2133.6003 2139.3225 2120.5953 2140.8831 2148.6861 
1948 1942 2128.6584 2136.4614 2129.1786 2132.5599 2137.5018 2141.6634 2124.7569 2136.2013 2144.7846 2129.6988 2136.2013 2121.3756 2134.1205 2145.3048 
1943 1947 2124.4968 2128.6584 2125.5372 2127.618 2142.1836 2138.2821 2121.3756 2134.9008 2146.8654 2135.1609 2132.5599 2123.7165 2130.219 2145.3048 
1940 1947 2123.7165 2128.1382 2122.9362 2127.8781 2142.1836 2139.3225 2122.416 2139.5826 2150.7669 2139.5826 2134.9008 2127.3579 2133.3402 2146.0851 
1933 1943 2127.8781 2135.421 2122.416 2135.1609 2131.2594 2140.3629 2126.3175 2145.825 2153.1078 2139.3225 2140.3629 2132.82 2138.022 2146.8654 
1930 1940 2130.7392 2139.5826 2122.6761 2140.1028 2132.2998 2139.8427 2129.1786 2145.5649 2153.3679 2137.2417 2138.8023 2138.022 2137.5018 2145.825 
1926 1931 2128.1382 2138.5422 2123.4564 2133.8604 2143.7442 2139.8427 2127.3579 2140.8831 2149.2063 2133.6003 2132.5599 2139.5826 2133.8604 2142.1836 
1924 1927 2122.9362 2134.3806 2120.0751 2126.3175 2147.9058 2138.5422 2125.017 2139.5826 2144.2644 2131.5195 2127.618 2135.6811 2127.8781 2137.7619 
1921 1915 2119.815 2131.7796 2116.4337 2130.219 2147.3856 2140.1028 2129.6988 2140.3629 2145.825 2131.2594 2124.7569 2132.82 2123.9766 2133.6003 
1919 1912 2117.214 2134.1205 2116.1736 2131.2594 2140.1028 2139.0624 2132.0397 2139.5826 2145.3048 2122.416 2121.3756 2131.7796 2121.8958 2128.9185 
1916 1912 2110.1913 2132.0397 2110.9716 2119.2948 2131.2594 2130.9993 2126.5776 2136.2013 2137.2417 2112.7923 2113.3125 2124.4968 2116.1736 2123.7165 
1911 1920 2108.8908 2127.8781 2107.5903 2115.9135 2140.1028 2132.2998 2127.3579 2136.7215 2138.8023 2123.4564 2115.3933 2122.9362 2118.2544 2124.2367 
1911 1924 2117.9943 2133.8604 2117.4741 2128.3983 2152.0674 2139.0624 2131.5195 2140.3629 2147.9058 2135.421 2128.1382 2136.4614 2128.6584 2132.5599 
1907 1926 2124.2367 2141.9235 2130.219 2137.7619 2145.5649 2135.1609 2127.618 2136.9816 2144.0043 2126.5776 2135.421 2147.3856 2133.3402 2139.0624 
1905 1924 2122.416 2137.5018 2135.9412 2134.9008 2137.5018 2128.9185 2121.1155 2133.0801 2135.9412 2116.9539 2134.1205 2147.6457 2132.82 2139.5826 
1900 1927 2121.8958 2136.9816 2138.2821 2133.6003 2138.5422 2133.0801 2121.3756 2136.2013 2141.1432 2126.8377 2134.3806 2148.6861 2134.6407 2139.3225 
1897 1931 2127.8781 2149.9866 2139.5826 2141.4033 2142.7038 2138.2821 2126.8377 2139.8427 2149.2063 2138.5422 2137.2417 2149.9866 2134.6407 2140.1028 
1894 1941 2130.4791 2154.6684 2139.8427 2146.6053 2147.1255 2137.2417 2128.3983 2140.1028 2148.9462 2134.1205 2138.5422 2146.6053 2133.8604 2139.3225 
1891 1944 2127.3579 2147.9058 2138.2821 2141.6634 2144.7846 2136.4614 2127.3579 2140.1028 2147.1255 2130.4791 2136.9816 2144.5245 2137.7619 2138.8023 
1887 1946 2123.1963 2147.6457 2133.6003 2138.2821 2143.4841 2136.9816 2128.9185 2139.8427 2147.9058 2132.0397 2131.2594 2141.9235 2135.6811 2139.5826 
1884 1945 2122.1559 2150.5068 2130.7392 2137.2417 2145.5649 2135.1609 2130.7392 2139.5826 2147.1255 2124.7569 2128.1382 2137.2417 2129.9589 2138.8023 
1882 1944 2123.9766 2147.1255 2132.0397 2130.219 2141.4033 2130.4791 2129.6988 2139.5826 2146.3452 2120.3352 2129.6988 2135.6811 2129.1786 2138.022 
1879 1944 2127.3579 2146.6053 2135.421 2132.2998 2136.7215 2129.4387 2129.6988 2138.8023 2147.6457 2134.6407 2128.9185 2136.4614 2130.9993 2141.1432 
1877 1946 2129.9589 2153.3679 2139.8427 2145.5649 2138.8023 2131.7796 2131.5195 2142.4437 2147.6457 2144.0043 2129.6988 2138.022 2135.1609 2145.825 
1875 1949 2129.6988 2155.1886 2140.3629 2144.5245 2140.1028 2130.7392 2130.9993 2146.6053 2146.8654 2133.8604 2134.9008 2139.0624 2138.2821 2145.825 
1874 1949 2129.6988 2152.5876 2137.2417 2135.421 2137.2417 2128.9185 2130.9993 2145.825 2149.9866 2131.2594 2138.5422 2139.8427 2138.8023 2143.4841 
1869 1949 2133.3402 2155.1886 2137.5018 2136.7215 2135.9412 2128.9185 2131.2594 2146.0851 2155.1886 2138.8023 2137.5018 2142.9639 2141.4033 2144.7846 
1866 1953 2137.2417 2161.1709 2141.6634 2139.8427 2133.8604 2130.4791 2132.5599 2149.2063 2156.4891 2143.4841 2139.8427 2147.9058 2145.5649 2148.426 
1859 1958 2138.2821 2162.4714 2144.2644 2137.5018 2135.1609 2134.3806 2135.1609 2148.9462 2154.4083 2145.825 2140.1028 2147.6457 2145.0447 2147.6457 
1856 1964 2139.3225 2161.6911 2146.3452 2137.2417 2144.5245 2137.7619 2137.2417 2148.426 2156.229 2141.1432 2139.3225 2146.3452 2145.825 2147.6457 
1848 1969 2139.8427 2162.7315 2147.3856 2137.2417 2150.7669 2134.1205 2135.1609 2147.9058 2156.4891 2131.5195 2143.4841 2147.6457 2149.2063 2151.5472 
1845 1971 2141.4033 2163.7719 2147.3856 2135.421 2144.0043 2129.9589 2130.9993 2144.5245 2149.7265 2127.0978 2141.6634 2144.7846 2146.8654 2152.0674 
1844 1971 2146.8654 2172.0951 2152.0674 2140.623 2134.6407 2135.6811 2133.6003 2145.825 2148.1659 2131.7796 2139.3225 2146.3452 2144.2644 2152.3275 
1844 1974 2151.027 2180.6784 2159.3502 2148.9462 2139.3225 2141.1432 2135.9412 2147.3856 2150.5068 2135.9412 2146.3452 2153.1078 2146.8654 2154.4083 
1843 1979 2145.825 2174.9562 2156.7492 2149.2063 2148.1659 2136.2013 2132.82 2141.1432 2145.3048 2134.6407 2146.3452 2148.426 2146.6053 2150.2467 
1843 1980 2139.0624 2168.1936 2148.6861 2145.3048 2144.2644 2132.0397 2132.5599 2139.8427 2143.224 2130.219 2140.3629 2140.8831 2143.4841 2144.7846 
1842 1982 2139.0624 2170.5345 2147.3856 2145.5649 2138.8023 2133.0801 2133.0801 2144.2644 2147.3856 2129.6988 2143.4841 2141.9235 2145.0447 2146.6053 
1844 1980 2138.8023 2171.5749 2146.8654 2144.7846 2138.8023 2131.5195 2131.2594 2144.0043 2146.0851 2132.2998 2144.2644 2141.6634 2144.7846 2147.9058 
1846 1977 2134.3806 2167.1532 2140.8831 2140.3629 2138.2821 2129.4387 2131.5195 2143.224 2143.7442 2129.9589 2135.9412 2136.2013 2139.5826 2144.7846 
1848 1974 2131.5195 2162.4714 2137.2417 2140.1028 2139.3225 2129.9589 2132.82 2142.1836 2146.8654 2127.8781 2137.2417 2137.2417 2141.4033 2145.0447 
1848 1973 2134.6407 2162.7315 2141.9235 2144.5245 2144.5245 2131.5195 2133.8604 2139.3225 2147.6457 2129.6988 2144.5245 2142.7038 2146.6053 2146.3452 
1850 1971 2136.4614 2167.4133 2145.5649 2145.825 2142.1836 2133.6003 2136.4614 2141.6634 2147.9058 2129.1786 2146.0851 2146.6053 2145.5649 2145.825 
1850 1970 2138.2821 2172.3552 2146.6053 2147.6457 2135.421 2136.7215 2137.7619 2147.3856 2152.8477 2131.5195 2147.1255 2151.5472 2148.1659 2147.9058 
1849 1966 2141.6634 2172.3552 2150.5068 2153.3679 2138.022 2139.8427 2138.2821 2147.6457 2154.4083 2138.8023 2148.6861 2155.4487 2152.3275 2149.2063 
1848 1963 2140.8831 2169.4941 2151.5472 2153.1078 2141.4033 2136.7215 2138.022 2144.0043 2148.9462 2139.3225 2146.8654 2152.5876 2148.1659 2147.3856 
1853 1959 2138.022 2168.7138 2146.8654 2150.5068 2143.4841 2131.5195 2134.6407 2141.4033 2147.1255 2133.3402 2146.3452 2147.9058 2145.0447 2145.825 
1852 1960 2136.7215 2166.633 2144.0043 2152.3275 2145.3048 2130.7392 2131.5195 2140.623 2146.6053 2132.0397 2145.825 2145.0447 2144.7846 2144.2644 
1858 1964 2133.0801 2162.2113 2145.3048 2151.027 2142.9639 2130.9993 2130.219 2138.022 2141.4033 2131.7796 2139.0624 2141.4033 2139.5826 2140.3629 
1860 1967 2130.7392 2163.5118 2144.7846 2147.9058 2141.1432 2130.219 2128.3983 2131.7796 2136.7215 2124.7569 2135.9412 2138.5422 2137.2417 2136.9816 
1861 1972 2135.1609 2169.234 2145.5649 2150.5068 2138.5422 2129.9589 2128.6584 2129.6988 2137.7619 2120.0751 2141.1432 2141.6634 2139.5826 2139.0624 
1864 1974 2139.3225 2169.7542 2150.7669 2155.4487 2139.8427 2131.7796 2129.6988 2133.6003 2141.1432 2127.618 2144.2644 2147.3856 2140.623 2142.9639 
1865 1977 2143.7442 2171.0547 2157.7896 2160.3906 2145.5649 2135.9412 2130.7392 2137.2417 2144.7846 2135.9412 2149.9866 2155.7088 2149.2063 2147.6457 
1867 1979 2148.1659 2175.4764 2162.4714 2163.7719 2136.9816 2136.7215 2132.0397 2138.2821 2149.4664 2136.2013 2157.0093 2161.9512 2156.7492 2151.5472 
1866 1983 2143.224 2172.3552 2158.83 2158.3098 2128.6584 2131.5195 2130.7392 2137.5018 2147.1255 2131.5195 2152.0674 2156.4891 2149.7265 2148.9462 
1867 1992 2136.2013 2168.4537 2153.3679 2153.3679 2143.224 2128.6584 2129.4387 2137.5018 2139.8427 2129.9589 2145.0447 2147.3856 2143.7442 2144.2644 
1869 1995 2137.7619 2172.8754 2152.8477 2157.0093 2151.2871 2131.5195 2131.2594 2138.022 2141.9235 2134.9008 2145.5649 2144.7846 2145.3048 2142.9639 
1868 1998 2144.5245 2177.8173 2155.9689 2162.2113 2142.1836 2135.421 2136.7215 2142.1836 2148.1659 2137.5018 2147.1255 2146.6053 2147.1255 2145.5649 
1867 1997 2147.3856 2175.4764 2156.229 2161.9512 2142.7038 2135.6811 2137.7619 2145.825 2144.5245 2128.1382 2144.7846 2145.3048 2146.0851 2147.1255 
1870 1992 2143.4841 2170.2744 2153.3679 2156.4891 2144.5245 2130.219 2132.2998 2138.8023 2135.421 2119.0347 2138.2821 2139.0624 2141.1432 2145.825 
1871 1990 2138.5422 2166.633 2150.5068 2150.7669 2134.6407 2127.3579 2128.3983 2128.6584 2132.2998 2123.4564 2130.219 2133.8604 2135.9412 2142.1836 
1873 1988 2136.9816 2167.1532 2147.3856 2151.027 2132.82 2130.4791 2129.1786 2128.1382 2133.3402 2124.7569 2127.8781 2134.3806 2135.6811 2139.8427 
1873 1984 2136.2013 2168.9739 2146.6053 2154.6684 2139.0624 2131.5195 2130.4791 2133.6003 2135.9412 2122.416 2132.5599 2136.9816 2137.2417 2142.1836 
1873 1983 2135.6811 2166.1128 2148.426 2154.6684 2136.2013 2130.7392 2131.7796 2136.4614 2138.5422 2127.8781 2138.2821 2138.8023 2138.022 2144.5245 
1874 1980 2137.2417 2164.5522 2151.027 2156.7492 2132.0397 2132.5599 2132.0397 2134.6407 2135.1609 2128.6584 2139.5826 2139.0624 2140.1028 2145.5649 
1877 1974 2138.5422 2167.6734 2151.5472 2160.9108 2136.2013 2130.4791 2128.3983 2129.4387 2129.9589 2120.5953 2135.6811 2138.022 2139.3225 2144.5245 
1877 1972 2141.6634 2171.0547 2153.1078 2163.5118 2142.4437 2130.4791 2127.8781 2129.1786 2131.2594 2122.416 2139.0624 2140.8831 2142.7038 2146.6053 
1878 1970 2146.8654 2173.1355 2159.3502 2167.1532 2142.4437 2135.6811 2132.5599 2134.9008 2137.7619 2134.6407 2147.3856 2146.0851 2149.4664 2151.5472 
1879 1968 2147.9058 2174.1759 2162.7315 2168.7138 2140.3629 2136.2013 2131.7796 2133.8604 2137.7619 2133.3402 2145.0447 2147.1255 2149.9866 2152.3275 
1881 1967 2141.6634 2170.5345 2158.0497 2165.5926 2136.7215 2128.3983 2124.2367 2126.5776 2131.5195 2121.1155 2137.2417 2145.3048 2143.7442 2148.1659 
1882 1970 2136.4614 2161.6911 2153.3679 2159.3502 2133.0801 2125.017 2120.3352 2124.4968 2128.1382 2122.1559 2136.9816 2144.2644 2138.022 2144.0043 
1883 1970 2142.7038 2160.3906 2158.83 2160.9108 2138.022 2132.2998 2127.3579 2130.219 2132.0397 2133.3402 2144.0043 2146.8654 2142.7038 2149.7265 
1887 1972 2149.9866 2167.6734 2164.2921 2166.1128 2141.9235 2136.2013 2133.3402 2133.8604 2135.421 2136.7215 2146.8654 2149.4664 2149.9866 2155.4487 
1886 1973 2147.3856 2172.0951 2159.6103 2166.1128 2133.8604 2130.7392 2127.8781 2128.3983 2131.2594 2132.5599 2140.1028 2143.4841 2144.2644 2150.5068 
1885 1974 2144.7846 2170.7946 2156.7492 2166.1128 2124.7569 2127.3579 2122.9362 2124.7569 2129.1786 2129.9589 2135.6811 2139.0624 2138.022 2147.1255 
1885 1980 2148.1659 2169.4941 2162.2113 2169.4941 2132.82 2131.5195 2128.1382 2129.6988 2135.1609 2132.2998 2140.623 2144.7846 2143.224 2152.0674 
1885 1983 2146.3452 2166.633 2162.2113 2166.8931 2144.0043 2132.5599 2131.7796 2132.2998 2135.9412 2132.5599 2141.6634 2144.2644 2143.4841 2151.2871 
1886 1987 2139.5826 2160.9108 2153.8881 2158.5699 2140.8831 2127.618 2128.6584 2128.9185 2130.9993 2124.4968 2135.421 2136.7215 2134.9008 2143.4841 
1885 1987 2136.9816 2160.6507 2154.1482 2160.3906 2136.2013 2128.1382 2129.4387 2127.8781 2133.3402 2121.3756 2136.7215 2138.022 2136.9816 2142.9639 
1883 1989 2132.2998 2158.3098 2154.6684 2158.0497 2135.421 2128.9185 2130.4791 2129.4387 2137.2417 2129.1786 2138.2821 2137.5018 2140.623 2141.1432 
1882 1991 2128.3983 2153.1078 2146.6053 2145.3048 2129.9589 2123.4564 2125.5372 2128.6584 2135.421 2132.0397 2133.0801 2128.1382 2133.6003 2137.2417 
1878 1993 2133.6003 2158.3098 2147.6457 2147.9058 2129.6988 2121.8958 2122.9362 2125.2771 2134.1205 2130.219 2132.0397 2127.8781 2132.0397 2141.4033 
1878 1993 2138.8023 2164.5522 2154.9285 2158.5699 2132.5599 2124.2367 2123.1963 2121.6357 2132.5599 2133.3402 2139.3225 2135.421 2139.3225 2146.6053 
1876 1991 2137.5018 2159.0901 2153.628 2154.9285 2125.7973 2122.6761 2122.9362 2123.7165 2132.82 2137.2417 2144.7846 2137.7619 2142.4437 2148.9462 
1874 1986 2139.5826 2157.0093 2154.1482 2152.0674 2123.7165 2122.416 2125.7973 2130.4791 2137.2417 2138.8023 2147.3856 2139.0624 2143.7442 2152.0674 
1875 1977 2147.3856 2167.1532 2165.5926 2164.5522 2131.7796 2129.9589 2130.4791 2136.2013 2139.5826 2138.5422 2154.1482 2145.825 2151.2871 2159.0901 
1875 1973 2150.5068 2171.0547 2169.4941 2168.9739 2133.6003 2133.6003 2132.0397 2138.022 2140.1028 2137.7619 2157.7896 2150.7669 2155.7088 2162.4714 
1874 1971 2144.7846 2160.3906 2161.431 2156.4891 2126.8377 2126.8377 2127.8781 2133.3402 2137.2417 2140.623 2149.7265 2146.6053 2149.2063 2157.2694 
1872 1988 2140.8831 2152.8477 2159.3502 2150.5068 2126.8377 2125.017 2124.4968 2130.219 2133.3402 2137.7619 2144.0043 2142.9639 2144.7846 2155.4487 
1870 2007 2144.5245 2157.7896 2162.7315 2154.4083 2130.219 2127.8781 2125.7973 2134.9008 2134.6407 2127.8781 2148.426 2146.0851 2147.9058 2160.3906 
1866 2038 2151.2871 2163.5118 2165.5926 2157.2694 2131.5195 2129.9589 2129.1786 2138.022 2140.1028 2132.0397 2155.7088 2152.3275 2154.4083 2166.1128 
1863 2043 2155.9689 2162.9916 2168.9739 2155.9689 2136.7215 2134.3806 2130.9993 2136.9816 2140.623 2145.3048 2154.4083 2156.229 2154.6684 2168.4537 
1862 2033 2153.628 2160.9108 2167.9335 2152.8477 2135.421 2132.0397 2130.7392 2137.7619 2139.0624 2143.224 2148.426 2153.628 2148.426 2165.0724 
1860 2022 2146.8654 2161.1709 2162.9916 2152.8477 2129.4387 2123.7165 2129.4387 2134.3806 2137.7619 2135.9412 2148.6861 2148.1659 2145.5649 2157.0093 
1860 2007 2144.5245 2164.5522 2162.7315 2157.5295 2133.6003 2126.0574 2128.3983 2125.7973 2131.7796 2136.2013 2151.2871 2148.426 2148.426 2154.4083 
1857 2009 2144.5245 2164.8123 2164.5522 2158.0497 2138.8023 2132.5599 2128.6584 2121.3756 2123.7165 2134.9008 2147.1255 2146.3452 2146.0851 2155.9689 
1853 2028 2141.9235 2158.3098 2162.7315 2147.1255 2134.6407 2129.4387 2128.9185 2124.2367 2120.3352 2130.219 2143.224 2139.0624 2139.8427 2153.8881 
1850 2038 2143.7442 2158.5699 2162.9916 2141.1432 2136.2013 2129.6988 2132.0397 2130.219 2126.3175 2129.4387 2144.7846 2140.8831 2142.4437 2153.3679 
1851 2043 2147.3856 2164.2921 2164.032 2146.6053 2140.8831 2134.3806 2134.1205 2132.5599 2132.2998 2133.8604 2142.7038 2146.0851 2143.4841 2154.9285 
1850 2038 2143.224 2159.3502 2160.3906 2147.1255 2132.82 2128.1382 2129.1786 2130.4791 2129.9589 2135.9412 2138.2821 2141.9235 2137.5018 2153.8881 
1849 2036 2139.3225 2155.9689 2158.83 2148.1659 2129.4387 2122.416 2126.5776 2129.6988 2128.9185 2132.82 2138.022 2137.7619 2137.5018 2151.8073 
1848 2028 2140.3629 2163.5118 2161.431 2154.1482 2133.3402 2126.5776 2131.2594 2134.6407 2134.6407 2132.0397 2140.1028 2140.8831 2140.623 2148.9462 
1847 2026 2136.4614 2159.8704 2158.0497 2150.5068 2133.3402 2128.6584 2131.2594 2132.82 2131.5195 2130.9993 2135.421 2137.7619 2132.2998 2145.0447 
1846 2021 2134.6407 2151.2871 2153.1078 2143.4841 2132.5599 2128.6584 2128.1382 2122.6761 2121.3756 2122.6761 2129.6988 2135.1609 2127.0978 2144.2644 
1846 2018 2142.1836 2160.9108 2155.7088 2145.5649 2128.3983 2132.2998 2134.9008 2134.1205 2131.7796 2119.2948 2135.421 2143.4841 2136.7215 2148.9462 
1843 2012 2141.4033 2161.9512 2152.8477 2141.4033 2125.2771 2128.6584 2137.2417 2148.6861 2142.4437 2125.5372 2134.1205 2141.6634 2134.6407 2146.3452 
1842 2010 2129.4387 2142.9639 2141.1432 2127.3579 2132.0397 2119.815 2124.7569 2127.0978 2123.9766 2124.4968 2119.815 2131.5195 2119.5549 2137.2417 
1844 2007 2128.3983 2139.0624 2139.8427 2126.0574 2136.7215 2120.8554 2117.4741 2103.1686 2109.6711 2120.0751 2119.2948 2138.022 2120.5953 2139.0624 
1843 2009 2136.4614 2149.9866 2145.0447 2135.9412 2131.7796 2124.2367 2121.6357 2114.613 2119.2948 2122.416 2128.1382 2152.5876 2132.2998 2146.8654 
1837 2020 2137.5018 2147.9058 2144.0043 2139.3225 2130.9993 2123.9766 2124.4968 2126.8377 2125.5372 2130.219 2126.5776 2155.1886 2132.2998 2147.3856 
1836 2027 2135.6811 2141.6634 2142.9639 2137.5018 2133.0801 2127.0978 2123.9766 2121.3756 2125.2771 2135.6811 2126.5776 2158.83 2128.6584 2145.825 
1836 2035 2136.9816 2145.3048 2143.224 2135.9412 2129.4387 2127.0978 2123.9766 2123.9766 2131.2594 2135.1609 2132.82 2169.7542 2131.7796 2148.1659 
1836 2042 2136.7215 2145.0447 2141.9235 2133.8604 2129.9589 2122.1559 2123.1963 2130.7392 2132.5599 2132.5599 2130.9993 2171.5749 2134.6407 2146.8654 
1834 2043 2136.7215 2142.9639 2144.5245 2133.3402 2132.0397 2123.7165 2125.2771 2130.4791 2128.6584 2130.9993 2129.1786 2169.4941 2136.2013 2145.825 
1837 2047 2140.3629 2145.5649 2147.6457 2135.6811 2130.7392 2129.4387 2129.9589 2129.1786 2129.6988 2128.9185 2134.9008 2173.9158 2138.8023 2151.027 
1839 2064 2145.3048 2147.9058 2148.1659 2138.8023 2136.7215 2131.7796 2132.5599 2135.9412 2132.2998 2145.3048 2139.0624 2175.2163 2140.3629 2154.4083 
1839 2072 2138.5422 2145.3048 2144.0043 2134.9008 2133.6003 2130.9993 2132.82 2135.1609 2130.219 2142.7038 2135.6811 2168.1936 2137.5018 2152.0674 
1842 2081 2140.623 2144.2644 2142.9639 2134.6407 2130.4791 2130.9993 2133.3402 2135.1609 2134.1205 2130.9993 2136.9816 2168.4537 2138.2821 2152.8477 
1843 2083 2145.3048 2146.8654 2147.1255 2137.7619 2131.7796 2131.5195 2131.7796 2136.9816 2136.2013 2136.7215 2138.5422 2170.0143 2140.623 2154.9285 
1845 2077 2142.1836 2146.8654 2145.825 2136.7215 2132.5599 2129.6988 2129.9589 2144.5245 2134.9008 2148.9462 2134.9008 2164.8123 2137.5018 2153.8881 
1848 2075 2137.2417 2139.0624 2139.5826 2129.1786 2123.7165 2123.9766 2127.0978 2142.7038 2132.82 2140.8831 2130.9993 2156.7492 2132.2998 2149.9866 
1851 2073 2132.82 2130.219 2137.2417 2122.6761 2116.6938 2118.7746 2118.2544 2121.8958 2122.416 2123.4564 2127.8781 2152.3275 2129.6988 2146.0851 
1852 2071 2131.5195 2130.9993 2139.5826 2123.1963 2125.017 2121.3756 2115.6534 2112.5322 2117.7342 2124.7569 2128.9185 2154.6684 2131.2594 2146.0851 
1854 2069 2132.0397 2133.3402 2137.5018 2124.4968 2134.1205 2125.2771 2121.8958 2123.1963 2123.9766 2134.9008 2130.219 2153.1078 2129.6988 2145.3048 
1859 2066 2127.8781 2127.3579 2130.7392 2118.7746 2131.2594 2122.9362 2123.1963 2124.4968 2118.7746 2132.5599 2125.2771 2142.1836 2123.7165 2139.5826 
1862 2064 2125.5372 2125.7973 2128.9185 2117.4741 2128.6584 2122.6761 2123.1963 2120.5953 2113.3125 2129.6988 2121.6357 2140.3629 2125.017 2138.2821 
1867 2062 2129.9589 2130.9993 2132.0397 2123.9766 2126.0574 2125.7973 2128.6584 2129.4387 2125.5372 2134.6407 2124.2367 2145.5649 2129.4387 2142.1836 
1868 2061 2130.9993 2129.9589 2131.2594 2122.6761 2118.2544 2127.618 2130.9993 2132.2998 2128.1382 2134.3806 2122.9362 2142.4437 2125.2771 2142.9639 
1871 2061 2129.1786 2125.7973 2129.1786 2117.7342 2128.1382 2129.1786 2128.3983 2127.8781 2120.5953 2128.9185 2120.5953 2140.3629 2125.017 2144.0043 
1875 2061 2131.5195 2128.9185 2131.7796 2121.3756 2139.0624 2131.5195 2130.219 2131.5195 2127.3579 2130.9993 2126.5776 2144.5245 2130.4791 2147.1255 
1877 2064 2133.6003 2134.3806 2133.8604 2126.5776 2125.017 2131.7796 2132.82 2135.6811 2136.4614 2137.2417 2127.8781 2143.224 2127.3579 2144.7846 
1881 2067 2129.9589 2130.219 2130.219 2123.9766 2117.7342 2127.3579 2127.618 2131.7796 2129.1786 2136.2013 2122.416 2137.5018 2123.9766 2141.1432 
1886 2069 2127.0978 2121.1155 2131.2594 2120.5953 2132.0397 2126.8377 2122.6761 2127.8781 2121.8958 2134.9008 2125.017 2138.5422 2129.6988 2143.7442 
1888 2069 2131.7796 2122.6761 2139.5826 2124.7569 2133.3402 2131.2594 2125.2771 2130.9993 2127.3579 2139.3225 2132.82 2145.825 2132.2998 2147.9058 
1889 2069 2133.3402 2128.3983 2139.5826 2127.3579 2112.2721 2124.7569 2126.0574 2130.4791 2127.8781 2135.6811 2133.3402 2147.3856 2130.219 2147.9058 
1894 2071 2124.2367 2122.6761 2130.219 2121.6357 2105.7696 2114.0928 2120.0751 2122.9362 2118.7746 2126.0574 2128.6584 2139.5826 2129.4387 2145.5649 
1897 2072 2124.2367 2120.5953 2132.2998 2121.6357 2120.8554 2122.9362 2121.3756 2123.7165 2122.416 2133.8604 2132.0397 2136.7215 2133.0801 2146.8654 
1901 2071 2134.3806 2127.3579 2141.1432 2128.3983 2130.9993 2133.0801 2127.0978 2133.3402 2133.0801 2141.4033 2137.2417 2142.1836 2137.2417 2149.4664 
1903 2070 2130.9993 2119.0347 2137.5018 2124.7569 2127.0978 2124.2367 2123.1963 2134.9008 2126.5776 2128.9185 2133.0801 2139.5826 2134.3806 2147.6457 
1907 2071 2121.8958 2112.2721 2130.7392 2119.2948 2116.9539 2119.5549 2118.5145 2127.0978 2119.0347 2130.9993 2127.618 2134.9008 2128.1382 2144.2644 
1909 2069 2126.0574 2124.4968 2134.3806 2123.7165 2119.0347 2126.0574 2121.6357 2124.7569 2125.2771 2145.0447 2130.9993 2139.5826 2130.219 2146.6053 
1912 2068 2128.3983 2123.7165 2133.8604 2122.6761 2127.3579 2125.2771 2120.5953 2124.2367 2127.3579 2136.7215 2133.0801 2138.8023 2132.0397 2146.3452 
1914 2066 2117.7342 2105.5095 2124.4968 2113.5726 2125.2771 2118.5145 2113.3125 2117.7342 2120.0751 2124.2367 2126.5776 2130.7392 2125.7973 2140.1028 
1919 2064 2116.1736 2105.7696 2124.2367 2114.3529 2115.3933 2119.5549 2115.6534 2118.5145 2119.815 2134.9008 2125.2771 2130.219 2124.2367 2140.3629 
1920 2063 2128.1382 2121.8958 2132.0397 2122.9362 2113.3125 2125.7973 2122.1559 2126.8377 2128.3983 2139.0624 2133.6003 2138.8023 2130.219 2146.3452 
1925 2061 2132.5599 2127.0978 2134.1205 2126.5776 2118.7746 2126.0574 2119.815 2126.3175 2127.3579 2124.2367 2138.8023 2144.0043 2134.1205 2146.8654 
1926 2060 2125.2771 2119.815 2130.9993 2123.1963 2121.3756 2122.1559 2115.3933 2120.8554 2114.613 2122.1559 2132.82 2141.1432 2129.6988 2142.1836 
1927 2058 2120.5953 2112.012 2127.0978 2116.6938 2128.9185 2119.815 2114.8731 2118.7746 2109.9312 2134.6407 2126.5776 2137.5018 2123.7165 2138.8023 
1931 2053 2125.2771 2113.8327 2126.0574 2115.9135 2128.6584 2122.9362 2116.1736 2115.3933 2117.4741 2135.1609 2132.2998 2140.8831 2128.1382 2142.7038 
1933 2052 2134.6407 2123.1963 2133.6003 2125.017 2122.416 2128.9185 2120.3352 2118.5145 2123.4564 2126.8377 2142.9639 2151.2871 2138.8023 2151.8073 
1938 2050 2138.5422 2127.618 2139.5826 2130.9993 2127.618 2131.5195 2122.9362 2125.2771 2122.416 2133.6003 2145.3048 2155.1886 2140.623 2154.9285 
1938 2050 2138.5422 2129.1786 2137.7619 2129.6988 2135.421 2135.1609 2124.7569 2127.3579 2124.7569 2141.4033 2145.3048 2153.628 2140.623 2153.628 
1945 2049 2141.1432 2129.1786 2137.7619 2129.6988 2130.219 2138.5422 2128.3983 2130.219 2134.1205 2131.5195 2149.2063 2155.1886 2147.6457 2156.229 
1949 2049 2135.6811 2117.214 2133.8604 2123.7165 2119.2948 2126.8377 2123.4564 2126.8377 2130.4791 2130.7392 2142.9639 2148.426 2142.9639 2152.3275 
1955 2046 2129.9589 2112.012 2130.219 2120.5953 2125.2771 2122.416 2120.0751 2122.6761 2115.3933 2148.6861 2137.2417 2141.4033 2132.2998 2146.6053 
1956 2047 2132.5599 2121.8958 2131.5195 2125.5372 2128.9185 2132.82 2126.3175 2125.2771 2115.1332 2143.4841 2139.3225 2139.8427 2132.0397 2146.3452 
1958 2044 2130.4791 2122.1559 2128.9185 2124.2367 2119.0347 2132.0397 2127.8781 2125.5372 2123.4564 2121.1155 2136.2013 2135.9412 2133.3402 2143.7442 
1962 2042 2133.3402 2123.9766 2135.1609 2129.9589 2130.4791 2138.2821 2133.3402 2132.2998 2118.7746 2142.7038 2145.5649 2142.7038 2144.7846 2149.4664 
1965 2035 2142.9639 2131.7796 2146.0851 2142.7038 2153.628 2150.7669 2140.8831 2142.1836 2105.5095 2170.5345 2163.7719 2156.7492 2157.7896 2159.0901 
1966 2033 2137.7619 2128.3983 2140.1028 2139.3225 2147.3856 2139.3225 2130.9993 2132.5599 2103.4287 2147.3856 2157.7896 2149.2063 2147.6457 2153.3679 
1967 2027 2130.219 2123.7165 2135.6811 2132.5599 2129.1786 2131.5195 2123.7165 2124.7569 2121.8958 2132.82 2148.9462 2139.8427 2139.3225 2147.6457 
1973 2013 2134.6407 2127.0978 2143.7442 2138.2821 2134.3806 2140.3629 2127.618 2132.5599 2129.6988 2155.9689 2160.6507 2149.2063 2151.027 2153.628 
1976 2004 2148.1659 2140.8831 2154.9285 2154.4083 2161.9512 2154.4083 2136.2013 2140.8831 2121.3756 2174.1759 2175.4764 2162.4714 2164.032 2163.2517 
1980 1985 2156.4891 2149.7265 2162.4714 2162.7315 2172.6153 2161.9512 2145.0447 2146.6053 2121.6357 2170.0143 2179.1178 2167.4133 2167.1532 2167.4133 
1983 1978 2149.9866 2139.3225 2159.0901 2153.1078 2155.1886 2152.0674 2142.4437 2147.3856 2123.1963 2159.6103 2176.7769 2165.8527 2162.7315 2163.5118 
1985 1968 2140.623 2129.4387 2148.9462 2142.7038 2139.5826 2137.5018 2131.7796 2141.4033 2116.9539 2160.6507 2172.8754 2160.3906 2155.7088 2158.3098 
1984 1967 2130.7392 2121.3756 2139.0624 2135.9412 2137.7619 2131.2594 2124.2367 2132.5599 2103.4287 2160.3906 2163.2517 2145.825 2146.6053 2150.5068 
1985 1972 2116.9539 2110.4514 2132.2998 2127.3579 2130.4791 2127.3579 2122.9362 2127.618 2096.406 2149.7265 2152.5876 2131.2594 2136.4614 2140.3629 
1984 1978 2121.1155 2120.5953 2141.6634 2135.6811 2138.8023 2136.9816 2131.2594 2139.0624 2113.8327 2156.229 2160.3906 2136.9816 2137.2417 2143.4841 
1984 1988 2126.5776 2127.8781 2148.6861 2143.4841 2149.4664 2137.5018 2130.219 2142.4437 2124.4968 2158.5699 2165.3325 2140.3629 2136.4614 2145.5649 
1985 1992 2111.2317 2113.0524 2140.1028 2133.8604 2129.6988 2117.4741 2114.3529 2122.9362 2108.3706 2131.7796 2149.4664 2123.4564 2120.3352 2130.219 
1968 1994 2125.5372 2133.3402 2158.3098 2152.8477 2132.5599 2137.5018 2126.8377 2130.219 2123.9766 2136.7215 2164.8123 2137.5018 2133.3402 2141.1432 
1983 1994 2149.2063 2158.83 2184.0597 2175.4764 2152.5876 2160.3906 2142.4437 2150.5068 2154.1482 2161.6911 2194.4637 2165.3325 2157.7896 2163.7719 
1982 1989 2120.5953 2130.219 2166.1128 2152.3275 2131.2594 2121.6357 2113.8327 2126.8377 2128.3983 2136.2013 2174.1759 2146.8654 2134.6407 2145.5649 
1987 1974 2097.1863 2112.012 2153.3679 2139.0624 2108.1105 2094.5853 2090.9439 2105.7696 2105.2494 2115.3933 2154.9285 2133.8604 2114.613 2129.1786 
1985 1981 2102.1282 2118.2544 2162.2113 2147.6457 2119.0347 2101.3479 2091.4641 2108.8908 2110.4514 2126.3175 2166.3729 2147.3856 2123.1963 2134.9008 
1982 2041 2097.1863 2116.6938 2160.9108 2147.1255 2126.3175 2101.608 2091.204 2105.5095 2109.411 2123.4564 2164.2921 2147.9058 2116.4337 2129.6988 
1982 2076 2100.5676 2129.9589 2164.8123 2158.83 2115.9135 2109.6711 2102.3883 2111.4918 2116.9539 2126.5776 2159.8704 2152.5876 2109.411 2128.9185 
1986 2087 2112.5322 2142.1836 2174.6961 2174.6961 2118.2544 2119.815 2115.3933 2123.4564 2110.1913 2140.623 2171.3148 2169.4941 2123.1963 2138.022 
1988 2073 2107.3302 2137.5018 2174.9562 2176.2567 2129.6988 2114.3529 2113.0524 2121.6357 2100.3075 2133.6003 2174.9562 2175.2163 2125.017 2132.2998 
1990 2044 2088.603 2129.1786 2168.1936 2170.7946 2116.9539 2098.7469 2101.0878 2110.7115 2111.4918 2105.2494 2159.3502 2167.1532 2104.209 2112.7923 
1992 2036 2080.0197 2124.7569 2169.234 2173.1355 2099.007 2088.0828 2092.2444 2100.8277 2114.3529 2095.3656 2155.1886 2162.9916 2097.7065 2107.3302 
1992 2042 2111.2317 2153.1078 2203.3071 2208.249 2136.4614 2120.5953 2117.214 2120.5953 2122.416 2137.7619 2193.9435 2190.8223 2134.1205 2139.3225 
1991 2054 2135.6811 2176.5168 2222.8146 2227.2363 2171.5749 2148.9462 2141.6634 2147.3856 2138.022 2170.0143 2220.4737 2217.8727 2158.3098 2162.9916 
1991 2077 2098.7469 2137.7619 2182.239 2184.0597 2126.5776 2106.81 2112.012 2126.0574 2117.7342 2131.5195 2186.9208 2199.1455 2124.4968 2133.3402 
1990 2078 2065.194 2103.9489 2152.0674 2153.1078 2090.9439 2070.396 2083.6611 2100.3075 2102.1282 2094.3252 2155.9689 2184.5799 2093.2848 2108.1105 
1992 2069 2082.6207 2124.2367 2172.3552 2174.436 2128.9185 2094.5853 2096.6661 2117.214 2131.7796 2121.3756 2171.835 2210.5899 2109.6711 2125.5372 
1994 2041 2095.1055 2138.022 2181.1986 2183.0193 2151.8073 2107.0701 2102.1282 2129.4387 2138.5422 2145.0447 2184.5799 2225.6757 2127.618 2135.9412 
1996 2028 2094.5853 2136.9816 2174.436 2177.2971 2137.5018 2098.2267 2097.4464 2122.9362 2112.5322 2124.4968 2180.4183 2223.5949 2126.8377 2129.6988 
1997 2020 2108.8908 2148.1659 2183.7996 2187.441 2140.3629 2105.5095 2106.81 2125.5372 2116.6938 2112.7923 2182.7592 2229.8373 2127.3579 2134.9008 
1999 2025 2109.9312 2145.825 2183.7996 2186.4006 2133.0801 2104.4691 2104.7292 2125.7973 2134.3806 2127.0978 2180.4183 2227.2363 2121.8958 2135.421 
2000 2038 2095.1055 2129.9589 2168.7138 2168.4537 2108.6307 2090.4237 2092.7646 2117.7342 2133.8604 2128.6584 2170.7946 2217.6126 2110.7115 2127.0978 
1998 2046 2096.6661 2131.5195 2168.7138 2166.1128 2128.3983 2100.5676 2102.1282 2122.6761 2132.0397 2114.613 2171.835 2225.6757 2115.3933 2132.2998 
2000 2059 2114.3529 2150.7669 2185.8804 2183.5395 2164.2921 2126.3175 2121.3756 2140.3629 2152.0674 2128.1382 2187.7011 2247.7842 2135.421 2148.1659 
2000 2065 2108.3706 2147.6457 2181.1986 2180.6784 2142.7038 2119.0347 2114.8731 2137.5018 2154.1482 2147.1255 2183.5395 2244.1428 2130.9993 2141.9235 
2000 2074 2078.199 2117.9943 2152.5876 2154.1482 2110.9716 2090.9439 2091.7242 2112.2721 2125.017 2119.815 2156.7492 2214.7515 2102.9085 2118.5145 
2000 2077 2080.5399 2119.5549 2154.9285 2156.7492 2132.5599 2100.3075 2096.1459 2112.012 2129.6988 2099.7873 2159.6103 2214.4914 2106.2898 2121.6357 
2001 2079 2100.8277 2138.2821 2173.6557 2174.436 2145.825 2117.7342 2111.4918 2126.5776 2150.5068 2126.3175 2176.7769 2230.8777 2121.6357 2135.1609 
2003 2082 2093.805 2128.6584 2167.1532 2166.3729 2122.9362 2103.1686 2102.6484 2120.8554 2132.82 2135.421 2168.4537 2223.855 2111.4918 2127.0978 
2005 2082 2079.2394 2116.4337 2153.8881 2156.7492 2120.5953 2090.1636 2089.3833 2110.1913 2113.5726 2105.7696 2153.628 2211.1101 2099.7873 2115.9135 
2005 2083 2084.4414 2123.4564 2156.7492 2161.9512 2135.6811 2098.4868 2093.805 2111.7519 2126.0574 2102.3883 2154.4083 2219.1732 2103.4287 2118.2544 
2006 2086 2096.1459 2129.9589 2166.633 2166.633 2138.8023 2109.411 2105.5095 2120.3352 2143.224 2133.0801 2163.5118 2239.461 2112.5322 2126.0574 
2007 2093 2095.1055 2131.5195 2168.4537 2167.1532 2135.9412 2106.81 2106.0297 2122.6761 2139.0624 2123.7165 2164.5522 2251.6857 2115.3933 2127.0978 
2008 2096 2086.5222 2130.9993 2163.2517 2165.8527 2140.3629 2097.1863 2098.4868 2116.6938 2130.219 2100.5676 2158.3098 2258.1882 2109.6711 2122.1559 
2012 2101 2085.2217 2124.4968 2160.1305 2161.9512 2138.8023 2095.6257 2095.1055 2111.7519 2128.6584 2114.0928 2154.4083 2271.1932 2104.4691 2121.6357 
2013 2101 2083.9212 2114.613 2155.7088 2153.3679 2127.0978 2095.3656 2093.2848 2106.0297 2120.3352 2110.7115 2148.9462 2283.678 2100.5676 2120.3352 
2014 2097 2083.6611 2115.1332 2156.7492 2154.1482 2126.8377 2096.1459 2094.8454 2107.0701 2118.5145 2095.1055 2148.9462 2299.0239 2100.8277 2119.815 
2016 2094 2094.5853 2128.9185 2168.7138 2166.633 2134.9008 2105.2494 2102.6484 2118.5145 2133.8604 2111.4918 2154.4083 2322.693 2106.5499 2125.5372 
2018 2087 2100.3075 2133.0801 2172.6153 2167.9335 2144.0043 2108.8908 2102.1282 2118.7746 2136.2013 2119.2948 2150.7669 2337.5187 2106.81 2126.5776 
2018 2083 2098.4868 2128.3983 2170.2744 2164.5522 2153.8881 2107.8504 2100.0474 2112.2721 2127.618 2105.2494 2151.2871 2345.8419 2109.1509 2125.5372 
2019 2077 2108.1105 2138.2821 2179.3779 2174.436 2164.032 2118.7746 2110.9716 2122.6761 2136.4614 2116.4337 2165.0724 2360.9277 2120.3352 2133.6003 
2015 2069 2108.3706 2139.3225 2176.2567 2171.0547 2158.83 2117.4741 2110.9716 2125.2771 2141.4033 2125.017 2158.5699 2360.4075 2115.1332 2131.7796 
2014 2064 2093.5449 2122.9362 2162.7315 2153.8881 2143.224 2100.5676 2096.1459 2110.7115 2126.5776 2104.7292 2143.224 2347.6626 2103.9489 2121.1155 
2010 2055 2090.1636 2118.5145 2162.9916 2147.3856 2142.9639 2097.7065 2091.204 2104.9893 2112.5322 2096.6661 2146.8654 2346.8823 2107.8504 2119.0347 
2008 2049 2089.9035 2115.6534 2156.4891 2136.7215 2145.5649 2100.8277 2093.5449 2106.0297 2112.2721 2103.9489 2140.1028 2338.5591 2100.8277 2116.1736 
2004 2037 2089.9035 2111.4918 2151.2871 2133.0801 2144.2644 2105.7696 2097.7065 2108.6307 2121.6357 2119.0347 2133.0801 2329.4556 2095.8858 2115.6534 
2003 2035 2103.9489 2128.1382 2171.0547 2145.5649 2149.9866 2118.2544 2105.7696 2117.214 2121.3756 2126.8377 2153.8881 2343.501 2117.214 2128.6584 
1999 2033 2117.7342 2142.4437 2189.7819 2149.7265 2164.2921 2122.9362 2109.1509 2122.9362 2120.8554 2117.214 2169.234 2358.3267 2129.9589 2140.1028 
1998 2035 2119.815 2136.7215 2189.2617 2154.1482 2158.83 2117.214 2108.1105 2122.6761 2135.6811 2116.4337 2162.2113 2358.8469 2123.4564 2141.4033 
1996 2037 2113.5726 2131.2594 2181.9789 2163.5118 2135.6811 2108.8908 2103.4287 2116.6938 2135.9412 2113.3125 2153.1078 2350.0035 2118.7746 2135.6811 
1996 2038 2109.411 2130.9993 2180.6784 2158.3098 2142.4437 2105.7696 2097.9666 2112.012 2121.1155 2103.4287 2153.1078 2338.8192 2118.2544 2133.6003 
1997 2042 2117.214 2133.0801 2189.7819 2151.5472 2160.3906 2114.0928 2101.8681 2119.815 2127.618 2125.2771 2160.3906 2341.9404 2124.2367 2141.6634 
1997 2046 2125.5372 2138.5422 2196.2844 2156.4891 2150.5068 2123.1963 2111.4918 2127.618 2135.9412 2148.1659 2171.5749 2355.7257 2136.9816 2149.2063 
1999 2049 2125.017 2138.5422 2192.643 2158.3098 2138.022 2121.8958 2114.0928 2123.1963 2126.8377 2122.416 2174.436 2353.3848 2140.623 2149.2063 
2000 2051 2129.9589 2138.022 2193.9435 2153.8881 2151.8073 2124.2367 2114.0928 2125.2771 2132.0397 2107.3302 2172.6153 2344.0212 2139.5826 2152.5876 
2000 2050 2132.5599 2137.5018 2193.4233 2146.6053 2160.6507 2126.5776 2115.6534 2129.4387 2139.3225 2133.3402 2171.3148 2337.7788 2139.0624 2154.6684 
2004 2046 2117.9943 2127.618 2180.4183 2141.1432 2136.2013 2115.6534 2115.9135 2128.9185 2133.3402 2136.2013 2163.7719 2323.2132 2132.0397 2145.825 
2006 2045 2113.0524 2121.1155 2176.2567 2144.2644 2121.1155 2109.6711 2114.0928 2132.0397 2137.7619 2123.9766 2159.8704 2314.6299 2130.219 2142.7038 
2008 2048 2127.3579 2128.3983 2183.0193 2146.8654 2143.224 2117.9943 2109.9312 2129.6988 2144.0043 2130.9993 2167.4133 2319.5718 2139.3225 2151.027 
2009 2049 2133.6003 2136.2013 2181.4587 2146.3452 2161.431 2124.4968 2108.6307 2121.6357 2140.623 2140.1028 2173.6557 2316.4506 2145.3048 2155.1886 
2011 2057 2120.8554 2125.2771 2168.7138 2137.7619 2148.9462 2116.9539 2109.1509 2119.5549 2137.7619 2131.2594 2163.5118 2295.9027 2137.2417 2147.6457 
2010 2060 2109.1509 2109.6711 2156.229 2122.1559 2133.3402 2105.2494 2104.4691 2115.6534 2128.9185 2117.214 2151.2871 2274.8346 2127.0978 2138.022 
2009 2064 2112.7923 2113.8327 2152.8477 2120.0751 2136.2013 2110.1913 2105.5095 2113.5726 2117.9943 2119.0347 2153.3679 2268.8523 2127.618 2138.2821 
2011 2064 2116.9539 2118.2544 2154.4083 2124.4968 2143.4841 2116.4337 2110.9716 2119.815 2121.8958 2127.0978 2149.9866 2266.5114 2128.1382 2140.8831 
2011 2058 2110.4514 2106.2898 2149.2063 2114.0928 2141.6634 2108.1105 2107.8504 2116.1736 2126.8377 2121.8958 2135.1609 2254.0266 2117.9943 2134.9008 
2010 2055 2112.7923 2105.2494 2150.7669 2112.7923 2144.0043 2112.7923 2112.5322 2116.1736 2127.618 2122.6761 2140.8831 2249.3448 2119.2948 2137.2417 
2010 2054 2124.7569 2116.4337 2161.1709 2123.9766 2146.0851 2123.7165 2123.4564 2132.0397 2126.8377 2132.0397 2159.3502 2256.6276 2136.7215 2148.9462 
2010 2050 2122.416 2115.6534 2157.7896 2122.416 2132.0397 2112.5322 2114.8731 2129.4387 2118.7746 2126.0574 2153.3679 2248.8246 2137.2417 2146.8654 
2008 2047 2110.4514 2112.012 2144.2644 2114.613 2119.815 2102.9085 2101.0878 2111.4918 2115.6534 2117.4741 2135.6811 2230.8777 2120.5953 2134.9008 
2007 2040 2111.2317 2111.4918 2143.4841 2113.8327 2140.623 2114.613 2108.8908 2113.0524 2123.4564 2121.6357 2134.9008 2227.4964 2116.1736 2135.1609 
2005 2039 2126.3175 2115.3933 2154.6684 2120.8554 2161.6911 2126.3175 2123.9766 2129.1786 2133.8604 2125.017 2145.825 2238.1605 2128.6584 2145.825 
2003 2032 2132.0397 2121.1155 2157.0093 2125.7973 2148.426 2124.2367 2123.1963 2131.5195 2134.9008 2132.2998 2145.5649 2240.2413 2130.9993 2148.426 
2003 2029 2120.5953 2114.613 2147.3856 2115.1332 2134.6407 2116.1736 2113.5726 2121.6357 2121.8958 2131.5195 2135.1609 2229.5772 2121.8958 2140.623 
2004 2025 2123.4564 2118.2544 2149.7265 2117.4741 2141.6634 2124.2367 2120.5953 2128.9185 2129.9589 2116.9539 2138.2821 2231.3979 2124.7569 2142.4437 
2003 2023 2129.6988 2123.7165 2151.5472 2127.0978 2154.4083 2134.3806 2125.7973 2134.1205 2142.9639 2132.82 2140.1028 2230.6176 2127.8781 2147.3856 
2003 2023 2123.1963 2114.3529 2145.0447 2115.9135 2149.7265 2127.8781 2123.1963 2130.9993 2132.2998 2130.4791 2135.9412 2221.254 2128.9185 2141.1432 
2003 2024 2122.416 2111.7519 2144.2644 2112.2721 2130.4791 2120.3352 2121.1155 2126.5776 2120.5953 2123.4564 2133.3402 2215.7919 2127.3579 2137.5018 
2002 2026 2123.4564 2113.0524 2144.0043 2113.5726 2133.0801 2120.3352 2120.3352 2125.7973 2122.9362 2133.3402 2130.4791 2212.4106 2120.3352 2138.2821 
2003 2026 2122.9362 2114.0928 2140.3629 2110.4514 2147.6457 2122.9362 2124.2367 2135.1609 2134.1205 2138.8023 2128.9185 2210.0697 2121.1155 2140.3629 
2003 2025 2127.3579 2118.7746 2140.3629 2112.5322 2139.5826 2122.9362 2123.7165 2138.2821 2134.1205 2120.5953 2131.2594 2209.2894 2130.4791 2143.7442 
2005 2022 2127.618 2113.5726 2140.1028 2108.3706 2132.82 2121.1155 2114.0928 2124.4968 2122.9362 2110.1913 2128.6584 2201.7465 2127.618 2141.9235 
2003 2014 2121.3756 2106.81 2135.6811 2099.7873 2143.4841 2121.1155 2112.7923 2117.4741 2120.3352 2126.5776 2122.416 2193.4233 2117.4741 2136.2013 
2004 2013 2121.8958 2114.8731 2134.9008 2108.8908 2144.5245 2123.4564 2122.1559 2124.7569 2126.3175 2132.2998 2124.4968 2194.7238 2120.3352 2137.5018 
2006 2014 2125.5372 2120.5953 2136.7215 2117.9943 2133.0801 2123.7165 2123.1963 2124.7569 2124.2367 2118.7746 2128.3983 2194.9839 2126.0574 2141.1432 
2006 2014 2122.9362 2112.5322 2133.3402 2107.0701 2130.219 2120.3352 2118.5145 2119.5549 2113.3125 2118.2544 2122.9362 2183.0193 2120.3352 2137.7619 
2007 2012 2123.4564 2111.4918 2132.5599 2103.9489 2145.0447 2125.5372 2122.6761 2126.5776 2116.4337 2122.6761 2122.416 2179.1178 2120.3352 2138.2821 
2006 2010 2124.2367 2115.3933 2131.7796 2109.411 2153.3679 2132.5599 2129.4387 2131.5195 2128.3983 2122.9362 2125.2771 2178.8577 2125.5372 2140.8831 
2003 2001 2120.0751 2115.9135 2126.0574 2108.1105 2137.2417 2129.1786 2130.4791 2129.9589 2130.219 2127.8781 2119.2948 2164.2921 2120.5953 2136.9816 
2001 1997 2127.8781 2121.6357 2132.82 2113.5726 2137.2417 2128.3983 2131.7796 2140.623 2136.2013 2134.3806 2125.017 2165.3325 2123.7165 2142.1836 
2001 1993 2140.8831 2125.2771 2149.2063 2118.7746 2157.2694 2134.1205 2131.7796 2147.3856 2133.8604 2135.9412 2138.8023 2184.0597 2138.2821 2153.1078 
2001 1989 2139.0624 2123.7165 2149.9866 2114.613 2148.9462 2130.9993 2124.4968 2131.5195 2111.4918 2130.4791 2134.6407 2181.9789 2139.5826 2151.8073 
2001 1989 2129.4387 2121.3756 2139.3225 2114.0928 2127.0978 2121.3756 2115.6534 2117.214 2103.1686 2117.214 2125.2771 2167.1532 2127.618 2143.7442 
2002 1983 2129.1786 2114.8731 2141.4033 2114.613 2135.1609 2122.416 2116.4337 2124.2367 2119.815 2118.7746 2130.219 2171.3148 2125.5372 2144.5245 
2002 1979 2133.0801 2110.4514 2147.3856 2108.3706 2152.8477 2130.7392 2124.2367 2132.82 2130.219 2129.4387 2137.2417 2178.5976 2133.3402 2148.9462 
2003 1967 2130.9993 2116.9539 2140.3629 2107.8504 2146.0851 2129.6988 2126.3175 2130.219 2128.1382 2120.8554 2132.2998 2169.4941 2132.5599 2146.6053 
2004 1956 2132.0397 2121.1155 2134.9008 2114.8731 2143.224 2128.3983 2127.618 2133.6003 2133.3402 2124.2367 2128.9185 2162.4714 2127.8781 2146.6053 
2003 1952 2139.5826 2121.6357 2141.4033 2117.4741 2147.1255 2134.9008 2133.8604 2142.9639 2140.1028 2142.4437 2134.9008 2162.9916 2133.6003 2152.8477 
2003 1980 2141.9235 2121.8958 2142.1836 2110.9716 2135.9412 2130.9993 2132.82 2141.6634 2137.5018 2133.8604 2135.9412 2160.1305 2139.8427 2156.4891 
2002 2063 2136.7215 2114.613 2133.6003 2099.5272 2130.219 2121.6357 2123.4564 2135.9412 2125.2771 2119.2948 2126.5776 2154.9285 2134.9008 2152.8477 
2002 2083 2132.2998 2109.411 2130.7392 2099.5272 2135.1609 2122.9362 2121.1155 2136.4614 2121.8958 2123.4564 2121.8958 2148.6861 2129.4387 2148.1659 
2003 2058 2129.9589 2113.3125 2129.4387 2107.5903 2131.7796 2123.9766 2124.4968 2134.1205 2128.3983 2121.1155 2123.7165 2140.8831 2128.9185 2145.5649 
2008 2031 2130.7392 2116.6938 2129.9589 2108.6307 2130.7392 2124.7569 2127.618 2134.3806 2126.3175 2123.9766 2123.7165 2140.623 2131.2594 2147.6457 
2010 2003 2129.9589 2116.4337 2131.7796 2104.7292 2141.6634 2128.6584 2132.0397 2145.3048 2125.7973 2135.6811 2123.9766 2139.3225 2131.7796 2147.9058 
2014 1965 2121.6357 2112.5322 2125.7973 2101.8681 2148.1659 2125.7973 2133.8604 2143.4841 2129.1786 2123.1963 2122.1559 2118.2544 2125.7973 2140.3629 
2013 1963 2120.3352 2106.5499 2124.2367 2094.5853 2149.9866 2123.4564 2131.7796 2130.9993 2127.0978 2106.2898 2121.6357 2101.0878 2123.4564 2138.5422 
2010 1999 2125.2771 2104.209 2129.4387 2089.1232 2154.4083 2128.6584 2129.9589 2127.8781 2120.3352 2119.2948 2122.1559 2106.2898 2128.6584 2144.0043 
2008 2022 2119.5549 2104.4691 2122.6761 2093.5449 2149.9866 2123.4564 2122.1559 2124.7569 2110.9716 2137.5018 2117.7342 2107.5903 2126.0574 2139.5826 
2007 2039 2117.4741 2104.7292 2116.1736 2098.7469 2141.9235 2116.6938 2114.613 2122.1559 2112.5322 2128.3983 2113.3125 2102.6484 2118.2544 2134.3806 
2008 2033 2129.4387 2109.1509 2127.618 2099.7873 2145.3048 2126.8377 2120.8554 2128.6584 2126.3175 2118.7746 2117.7342 2110.4514 2124.2367 2142.1836 
2011 2027 2134.1205 2115.1332 2133.6003 2103.4287 2152.0674 2134.3806 2128.3983 2133.8604 2127.0978 2133.0801 2122.1559 2116.6938 2133.6003 2148.1659 
2011 2027 2128.6584 2115.9135 2124.4968 2109.411 2155.9689 2130.7392 2127.3579 2131.7796 2116.1736 2144.7846 2120.3352 2106.5499 2129.4387 2145.3048 
2011 2026 2129.6988 2112.012 2122.1559 2111.2317 2161.6911 2129.4387 2125.2771 2129.1786 2120.3352 2128.9185 2120.3352 2095.1055 2125.7973 2145.0447 
2010 2024 2130.4791 2107.5903 2124.2367 2105.7696 2160.3906 2129.9589 2125.2771 2131.5195 2132.5599 2115.1332 2121.3756 2089.6434 2130.219 2146.0851 
2008 2027 2128.9185 2107.3302 2121.6357 2097.9666 2150.2467 2129.4387 2127.0978 2135.421 2129.4387 2127.618 2118.7746 2090.1636 2131.7796 2144.2644 
2003 2029 2133.8604 2111.2317 2121.8958 2098.4868 2145.5649 2131.2594 2129.6988 2132.82 2117.7342 2134.3806 2116.6938 2096.6661 2129.9589 2145.3048 
2001 2031 2137.5018 2113.3125 2123.1963 2107.5903 2146.3452 2131.7796 2126.0574 2122.9362 2112.2721 2125.017 2116.9539 2095.6257 2131.7796 2147.3856 
1995 2042 2132.5599 2109.1509 2116.6938 2106.81 2145.5649 2128.3983 2121.8958 2119.5549 2116.4337 2118.7746 2114.3529 2083.6611 2130.4791 2142.4437 
1992 2045 2128.9185 2102.3883 2113.8327 2098.4868 2157.7896 2132.2998 2125.2771 2122.1559 2122.6761 2127.3579 2113.3125 2078.9793 2125.2771 2136.9816 
1992 2046 2131.7796 2105.2494 2120.5953 2102.9085 2169.7542 2138.5422 2127.8781 2123.7165 2120.3352 2139.5826 2122.1559 2084.7015 2128.1382 2141.6634 
1993 2042 2133.6003 2113.5726 2123.1963 2113.5726 2157.0093 2133.8604 2123.7165 2123.1963 2117.7342 2133.3402 2123.4564 2084.7015 2131.7796 2144.5245 
1995 2037 2131.7796 2113.8327 2119.815 2114.3529 2144.7846 2128.6584 2122.6761 2121.3756 2120.5953 2121.3756 2113.8327 2079.4995 2128.9185 2139.8427 
1996 2034 2132.0397 2108.8908 2121.6357 2109.1509 2153.1078 2134.6407 2126.0574 2125.2771 2123.4564 2128.9185 2115.6534 2078.199 2128.6584 2137.7619 
1998 2026 2131.7796 2107.8504 2122.6761 2106.81 2161.6911 2138.2821 2126.5776 2130.4791 2123.7165 2143.4841 2124.4968 2077.1586 2131.7796 2141.1432 
2000 2021 2128.6584 2107.5903 2116.9539 2108.1105 2154.1482 2130.7392 2121.1155 2126.0574 2122.416 2134.1205 2121.1155 2073.7773 2131.5195 2139.5826 
2002 2016 2125.7973 2106.81 2115.1332 2106.2898 2144.2644 2127.618 2121.1155 2124.2367 2122.6761 2117.4741 2113.0524 2072.997 2128.6584 2136.2013 
2003 2017 2129.6988 2109.1509 2119.815 2107.0701 2151.2871 2136.2013 2127.618 2129.4387 2122.9362 2128.1382 2115.9135 2079.7596 2129.6988 2141.6634 
2002 2022 2138.2821 2117.4741 2124.4968 2118.2544 2163.5118 2142.1836 2127.618 2130.7392 2122.6761 2145.825 2121.3756 2089.6434 2135.1609 2148.9462 
2001 2041 2140.623 2118.7746 2123.4564 2120.3352 2157.5295 2136.2013 2121.3756 2127.3579 2123.1963 2135.1609 2120.3352 2094.5853 2139.0624 2148.6861 
2001 2050 2138.5422 2104.209 2121.8958 2106.5499 2152.8477 2135.9412 2121.3756 2128.9185 2126.3175 2127.8781 2119.0347 2103.4287 2138.8023 2149.2063 
2002 2057 2142.4437 2098.7469 2126.8377 2105.5095 2166.633 2146.8654 2129.9589 2137.5018 2130.7392 2142.7038 2122.416 2119.2948 2139.8427 2156.229 
2004 2055 2143.7442 2110.7115 2126.0574 2114.0928 2160.6507 2145.5649 2133.3402 2140.3629 2131.7796 2140.1028 2121.3756 2128.6584 2139.8427 2157.0093 
2010 2049 2129.6988 2107.0701 2111.2317 2107.5903 2138.022 2129.9589 2123.7165 2128.6584 2125.7973 2126.5776 2110.4514 2121.3756 2129.4387 2145.0447 
2010 2044 2118.2544 2088.8631 2099.2671 2095.3656 2137.2417 2125.017 2118.2544 2122.1559 2120.3352 2129.9589 2101.0878 2110.9716 2117.9943 2135.1609 
2013 2039 2123.9766 2085.2217 2104.9893 2089.1232 2143.224 2130.9993 2124.7569 2130.9993 2122.6761 2126.8377 2097.9666 2118.7746 2119.2948 2137.7619 
2016 2041 2131.5195 2095.3656 2111.2317 2092.2444 2136.4614 2132.0397 2123.7165 2133.3402 2125.7973 2125.5372 2096.406 2131.2594 2123.1963 2143.224 
2017 2046 2130.7392 2100.5676 2108.6307 2104.4691 2144.0043 2129.9589 2114.0928 2125.017 2122.6761 2135.1609 2101.3479 2127.8781 2123.1963 2141.4033 
2020 2049 2125.7973 2097.4464 2105.7696 2109.1509 2156.7492 2128.9185 2112.5322 2118.2544 2119.815 2128.9185 2108.6307 2121.1155 2123.9766 2136.7215 
2022 2048 2122.6761 2096.406 2105.2494 2101.608 2143.4841 2127.0978 2116.1736 2117.4741 2122.1559 2122.9362 2108.1105 2122.9362 2125.5372 2136.4614 
2024 2047 2123.9766 2096.6661 2109.411 2097.1863 2139.3225 2128.3983 2119.0347 2120.3352 2121.6357 2126.3175 2106.5499 2123.4564 2125.7973 2137.7619 
2025 2046 2127.0978 2097.9666 2113.5726 2101.8681 2157.5295 2133.6003 2121.3756 2121.3756 2120.3352 2124.4968 2110.9716 2121.8958 2127.8781 2138.2821 
2026 2049 2131.2594 2110.9716 2112.7923 2112.5322 2147.9058 2138.022 2123.1963 2125.2771 2126.5776 2132.2998 2117.7342 2123.9766 2134.6407 2140.1028 
2026 2051 2130.7392 2113.3125 2110.9716 2106.2898 2128.9185 2135.1609 2123.4564 2127.8781 2130.219 2140.8831 2117.4741 2117.4741 2133.6003 2140.8831 
2028 2056 2124.4968 2094.0651 2106.5499 2088.8631 2145.825 2129.4387 2122.9362 2127.618 2122.9362 2130.9993 2107.5903 2103.4287 2123.1963 2138.022 
2027 2059 2120.5953 2091.9843 2099.2671 2094.3252 2157.5295 2128.9185 2122.1559 2132.82 2120.0751 2125.7973 2101.3479 2097.4464 2120.5953 2136.7215 
2029 2066 2121.8958 2108.8908 2099.5272 2111.4918 2141.6634 2129.4387 2120.0751 2135.1609 2126.8377 2131.2594 2108.3706 2098.4868 2126.0574 2137.5018 
2029 2070 2123.9766 2109.411 2107.8504 2113.5726 2142.1836 2129.6988 2121.8958 2126.3175 2132.5599 2128.6584 2118.7746 2098.4868 2129.9589 2138.2821 
2033 2075 2124.4968 2102.3883 2109.1509 2109.6711 2151.027 2132.2998 2128.6584 2120.0751 2131.2594 2130.7392 2123.4564 2099.2671 2134.6407 2140.1028 
2034 2077 2122.9362 2103.6888 2104.9893 2108.8908 2145.5649 2129.9589 2127.0978 2118.2544 2125.5372 2138.022 2120.3352 2099.5272 2136.2013 2140.1028 
2037 2082 2125.017 2105.7696 2108.6307 2106.5499 2144.7846 2128.1382 2118.2544 2118.2544 2124.7569 2135.9412 2116.1736 2094.8454 2130.7392 2138.8023 
2038 2086 2131.5195 2106.5499 2115.3933 2105.7696 2152.0674 2135.1609 2122.1559 2126.8377 2132.2998 2135.6811 2119.2948 2093.2848 2132.2998 2141.6634 
2036 2086 2130.7392 2103.9489 2115.6534 2108.1105 2157.5295 2140.1028 2129.9589 2132.5599 2133.3402 2138.022 2124.4968 2095.3656 2139.0624 2144.5245 
2035 2083 2128.9185 2109.9312 2114.3529 2115.1332 2158.5699 2138.5422 2126.8377 2131.2594 2131.5195 2132.2998 2122.1559 2098.4868 2140.3629 2143.7442 
2034 2079 2132.5599 2122.416 2115.1332 2122.6761 2141.6634 2136.4614 2124.7569 2133.3402 2133.8604 2130.7392 2119.5549 2097.4464 2136.7215 2145.0447 
2035 2072 2133.0801 2116.4337 2116.9539 2118.5145 2136.4614 2138.5422 2128.9185 2132.5599 2133.8604 2145.825 2121.1155 2093.0247 2134.1205 2145.825 
2034 2068 2135.421 2106.2898 2117.214 2114.8731 2162.7315 2146.6053 2131.7796 2131.5195 2132.82 2151.027 2125.5372 2095.8858 2138.2821 2145.825 
2033 2067 2137.5018 2110.1913 2112.7923 2113.5726 2166.633 2145.5649 2131.2594 2129.9589 2126.8377 2137.2417 2122.9362 2097.1863 2141.1432 2146.6053 
2032 2066 2134.1205 2117.4741 2111.4918 2114.0928 2142.9639 2136.7215 2127.8781 2126.8377 2121.3756 2134.3806 2116.4337 2089.3833 2137.5018 2145.5649 
2027 2061 2134.3806 2115.3933 2113.5726 2115.6534 2146.8654 2139.8427 2131.7796 2135.9412 2133.3402 2143.4841 2119.5549 2083.401 2136.9816 2143.4841 
2026 2058 2131.5195 2103.4287 2105.5095 2104.209 2157.7896 2145.0447 2140.1028 2142.7038 2140.1028 2141.4033 2117.214 2076.8985 2133.8604 2138.2821 
2023 2053 2124.2367 2100.3075 2097.7065 2097.4464 2143.4841 2136.9816 2133.3402 2127.3579 2126.5776 2122.6761 2109.6711 2067.5349 2127.3579 2133.3402 
2024 2050 2130.9993 2118.2544 2107.8504 2115.9135 2138.2821 2135.1609 2121.1155 2119.0347 2123.7165 2120.0751 2117.9943 2071.4364 2134.6407 2140.1028 
2022 2042 2142.1836 2129.1786 2117.9943 2128.6584 2146.6053 2143.4841 2124.2367 2130.4791 2134.6407 2144.5245 2127.618 2078.7192 2141.9235 2147.9058 
2021 2038 2139.5826 2115.9135 2115.6534 2112.2721 2153.8881 2146.3452 2130.7392 2132.82 2133.0801 2154.6684 2122.1559 2073.7773 2138.022 2145.3048 
2021 2030 2138.5422 2109.6711 2113.3125 2104.209 2165.5926 2148.1659 2131.2594 2128.6584 2128.9185 2137.2417 2119.2948 2073.2571 2138.2821 2145.5649 
2019 2023 2138.2821 2116.6938 2110.7115 2114.613 2158.83 2146.6053 2131.2594 2131.2594 2128.1382 2126.8377 2117.9943 2073.5172 2136.2013 2145.5649 
2018 2013 2132.82 2118.5145 2107.3302 2117.9943 2137.5018 2142.1836 2131.2594 2132.2998 2126.0574 2137.5018 2112.012 2070.6561 2128.1382 2141.4033 
2018 1998 2132.0397 2111.7519 2106.5499 2111.7519 2140.1028 2144.2644 2130.7392 2130.9993 2128.1382 2140.8831 2114.3529 2072.7369 2128.9185 2142.7038 
2021 1995 2135.6811 2107.0701 2106.5499 2108.1105 2152.3275 2147.1255 2131.7796 2132.0397 2132.0397 2136.4614 2118.5145 2074.8177 2134.3806 2146.0851 
2026 1998 2136.9816 2113.3125 2111.2317 2111.7519 2142.1836 2143.7442 2133.0801 2134.3806 2132.0397 2140.1028 2116.4337 2073.2571 2135.1609 2144.5245 
2028 2001 2138.2821 2116.4337 2115.1332 2113.5726 2139.3225 2142.1836 2132.5599 2138.8023 2132.5599 2144.2644 2117.214 2076.1182 2137.5018 2145.825 
2032 2012 2139.8427 2109.1509 2110.7115 2109.411 2154.6684 2143.224 2132.2998 2139.5826 2134.1205 2141.4033 2121.6357 2082.8808 2140.8831 2149.9866 
2035 2017 2135.1609 2102.9085 2104.4691 2105.5095 2153.628 2140.3629 2137.7619 2135.9412 2129.9589 2138.022 2121.3756 2080.2798 2139.0624 2147.3856 
2037 2021 2133.8604 2106.0297 2104.9893 2105.5095 2134.3806 2140.623 2145.5649 2141.6634 2129.1786 2137.5018 2117.9943 2074.8177 2136.7215 2144.5245 
2040 2020 2143.4841 2115.9135 2112.2721 2109.1509 2135.6811 2146.8654 2141.6634 2147.1255 2138.2821 2141.6634 2121.8958 2079.2394 2139.8427 2150.7669 
2043 2011 2149.7265 2125.2771 2120.0751 2120.0751 2160.3906 2152.8477 2130.7392 2137.2417 2140.623 2152.8477 2126.3175 2086.5222 2144.7846 2155.9689 
2043 2003 2146.6053 2129.9589 2121.3756 2129.6988 2166.8931 2154.1482 2127.0978 2128.3983 2129.6988 2149.4664 2125.017 2085.4818 2146.8654 2153.8881 
2043 1975 2146.0851 2130.4791 2119.815 2128.6584 2150.7669 2153.1078 2132.2998 2131.2594 2127.3579 2136.7215 2127.618 2081.8404 2145.3048 2153.628 
2047 1958 2144.7846 2123.1963 2115.6534 2120.8554 2146.3452 2151.027 2135.1609 2133.0801 2132.5599 2137.7619 2122.416 2073.2571 2139.5826 2153.8881 
2048 1948 2135.6811 2108.8908 2105.5095 2111.4918 2152.8477 2145.0447 2132.0397 2129.4387 2127.8781 2134.1205 2106.5499 2058.6915 2129.9589 2146.8654 
2049 2001 2131.7796 2103.4287 2101.608 2105.7696 2142.9639 2139.0624 2131.7796 2129.9589 2123.1963 2125.5372 2104.209 2055.3102 2125.5372 2142.7038 
2047 2045 2135.6811 2103.1686 2103.1686 2101.3479 2128.3983 2138.022 2137.7619 2135.1609 2127.618 2135.421 2113.5726 2059.992 2130.9993 2147.1255 
2046 2073 2145.3048 2110.4514 2109.9312 2107.3302 2139.5826 2148.426 2145.0447 2145.0447 2138.2821 2149.9866 2120.3352 2066.4945 2142.7038 2154.4083 
2049 2050 2154.4083 2124.2367 2121.8958 2118.2544 2153.3679 2156.4891 2147.9058 2149.2063 2145.825 2147.6457 2125.2771 2077.9389 2149.4664 2158.3098 
2053 1994 2140.8831 2119.815 2117.4741 2113.3125 2140.8831 2144.0043 2147.6457 2140.8831 2134.6407 2125.7973 2120.0751 2075.598 2141.9235 2150.7669 
2053 1977 2124.4968 2111.4918 2107.5903 2107.8504 2134.9008 2131.7796 2142.7038 2134.3806 2122.6761 2110.1913 2111.7519 2061.8127 2136.4614 2142.7038 
2053 1973 2141.4033 2129.4387 2126.0574 2124.7569 2160.3906 2148.1659 2137.2417 2139.0624 2134.1205 2130.4791 2119.2948 2062.593 2145.0447 2152.0674 
2051 1987 2159.0901 2146.8654 2145.0447 2142.9639 2174.6961 2163.7719 2136.7215 2140.8831 2144.5245 2151.027 2128.6584 2069.8758 2149.4664 2162.2113 
2044 2043 2147.1255 2138.022 2132.82 2140.1028 2160.3906 2152.3275 2137.7619 2133.6003 2133.8604 2139.0624 2122.6761 2067.0147 2142.4437 2155.1886 
2040 2067 2139.0624 2128.9185 2121.3756 2132.82 2160.1305 2145.825 2136.7215 2131.2594 2125.2771 2133.3402 2115.6534 2065.7142 2137.5018 2146.8654 
2039 2075 2146.0851 2130.7392 2124.4968 2131.2594 2170.5345 2154.4083 2137.2417 2135.6811 2129.4387 2144.5245 2113.3125 2067.2748 2136.2013 2147.6457 
2041 2048 2148.9462 2135.1609 2125.017 2131.7796 2156.229 2153.628 2142.4437 2139.5826 2134.9008 2132.0397 2113.5726 2064.9339 2136.4614 2149.2063 
2041 2027 2142.9639 2131.5195 2122.6761 2126.3175 2144.2644 2145.0447 2143.224 2138.5422 2135.421 2115.9135 2115.9135 2060.5122 2138.2821 2147.3856 
2039 1998 2137.5018 2121.1155 2120.3352 2116.6938 2156.229 2142.4437 2138.2821 2132.2998 2127.8781 2125.2771 2114.8731 2052.9693 2137.7619 2144.7846 
2038 1993 2141.4033 2125.5372 2122.6761 2119.2948 2157.0093 2144.7846 2138.2821 2133.0801 2123.4564 2132.5599 2112.7923 2048.0274 2137.5018 2148.426 
2035 2003 2148.6861 2136.7215 2126.0574 2125.2771 2140.3629 2146.3452 2144.2644 2139.8427 2128.9185 2130.9993 2114.8731 2047.2471 2139.0624 2155.4487 
2034 2013 2149.7265 2133.3402 2125.017 2125.2771 2152.0674 2148.6861 2146.8654 2140.3629 2130.7392 2132.82 2118.7746 2049.8481 2140.1028 2156.229 
2032 2031 2154.6684 2133.3402 2127.8781 2129.1786 2173.1355 2154.9285 2145.0447 2137.7619 2129.1786 2130.9993 2123.4564 2060.2521 2144.7846 2158.0497 
2033 2033 2163.7719 2145.0447 2134.1205 2136.7215 2152.0674 2157.2694 2143.4841 2142.1836 2132.82 2129.1786 2125.7973 2069.3556 2148.9462 2162.2113 
2038 2024 2156.4891 2136.2013 2127.618 2131.7796 2136.7215 2149.9866 2136.7215 2138.8023 2132.82 2137.7619 2119.2948 2059.7319 2138.022 2155.7088 
2040 2018 2143.4841 2118.5145 2119.2948 2122.6761 2159.6103 2145.3048 2128.1382 2129.6988 2128.1382 2140.8831 2111.4918 2049.8481 2128.3983 2147.6457 
2043 2006 2145.825 2124.2367 2122.9362 2123.9766 2161.9512 2147.1255 2131.7796 2139.8427 2133.8604 2130.7392 2115.1332 2056.8708 2136.9816 2153.1078 
2045 2001 2141.1432 2116.4337 2114.613 2113.5726 2144.0043 2146.0851 2133.6003 2133.3402 2129.4387 2135.9412 2108.8908 2047.2471 2128.9185 2147.1255 
2047 2008 2135.421 2108.8908 2108.6307 2103.9489 2144.0043 2141.1432 2130.4791 2122.416 2119.5549 2124.4968 2104.4691 2043.6057 2121.8958 2142.1836 
2047 2014 2137.2417 2112.2721 2110.7115 2104.209 2134.1205 2139.5826 2136.7215 2130.219 2123.9766 2108.1105 2103.6888 2044.386 2126.0574 2144.2644 
2051 2027 2142.4437 2120.8554 2114.613 2111.7519 2142.9639 2146.3452 2144.0043 2137.7619 2131.7796 2121.8958 2108.1105 2045.6865 2136.2013 2147.9058 
2052 2033 2144.7846 2127.0978 2111.4918 2117.9943 2147.3856 2149.2063 2145.3048 2141.1432 2133.8604 2143.7442 2116.1736 2054.0097 2140.1028 2148.1659 
2056 2040 2141.4033 2124.7569 2106.5499 2115.9135 2130.9993 2143.7442 2146.6053 2148.1659 2134.1205 2135.9412 2114.8731 2055.8304 2132.82 2145.5649 
2057 2040 2137.5018 2121.8958 2106.0297 2113.0524 2130.7392 2142.1836 2145.5649 2144.7846 2130.7392 2125.017 2108.6307 2047.7673 2129.1786 2144.7846 
2059 2039 2138.5422 2126.8377 2105.5095 2119.0347 2149.7265 2145.5649 2138.022 2132.82 2127.618 2139.8427 2111.4918 2046.987 2131.7796 2145.3048 
2061 2037 2139.5826 2132.5599 2104.4691 2126.3175 2153.8881 2147.1255 2130.4791 2129.6988 2130.7392 2150.2467 2118.5145 2051.1486 2130.7392 2144.0043 
2065 2035 2136.9816 2131.2594 2106.0297 2123.1963 2142.4437 2146.0851 2129.4387 2134.9008 2133.6003 2133.8604 2115.1332 2047.5072 2130.4791 2142.1836 
2068 2035 2135.421 2124.4968 2104.9893 2113.8327 2147.1255 2146.0851 2133.6003 2135.421 2128.9185 2116.9539 2108.6307 2044.1259 2133.6003 2143.4841 
2071 2040 2137.2417 2124.4968 2106.0297 2115.3933 2154.6684 2146.8654 2137.5018 2136.9816 2129.9589 2129.6988 2109.9312 2048.5476 2131.5195 2145.0447 
2077 2042 2140.623 2125.7973 2108.6307 2116.6938 2142.1836 2145.5649 2139.8427 2144.2644 2138.8023 2140.1028 2111.4918 2051.9289 2130.9993 2146.3452 
2078 2044 2140.623 2116.4337 2102.1282 2101.608 2139.0624 2141.4033 2138.2821 2142.9639 2132.82 2129.9589 2106.81 2048.0274 2133.0801 2148.1659 
2082 2045 2136.9816 2113.3125 2096.9262 2099.007 2146.8654 2137.5018 2135.421 2135.9412 2121.1155 2133.0801 2105.2494 2044.6461 2129.9589 2146.6053 
2083 2044 2136.9816 2125.2771 2102.9085 2117.4741 2140.8831 2140.1028 2136.4614 2136.9816 2127.3579 2147.1255 2112.012 2051.1486 2131.7796 2146.3452 
2089 2039 2142.1836 2129.6988 2110.4514 2123.9766 2139.0624 2148.1659 2140.623 2142.4437 2137.5018 2142.1836 2119.0347 2061.0324 2141.4033 2151.8073 
2091 2036 2142.1836 2122.1559 2108.1105 2110.9716 2147.6457 2147.1255 2141.1432 2140.623 2132.82 2131.2594 2119.815 2064.9339 2144.0043 2152.5876 
2096 2035 2137.5018 2120.5953 2104.4691 2105.5095 2147.1255 2141.6634 2136.9816 2136.7215 2127.618 2134.9008 2118.2544 2070.396 2138.8023 2146.6053 
2097 2034 2137.7619 2124.2367 2106.2898 2109.9312 2137.2417 2144.7846 2137.5018 2138.022 2131.7796 2140.623 2114.3529 2079.4995 2135.6811 2146.6053 
2103 2033 2140.623 2126.0574 2105.7696 2110.9716 2134.6407 2148.9462 2140.1028 2136.4614 2132.82 2141.1432 2108.3706 2084.7015 2133.3402 2147.3856 
2105 2033 2136.9816 2123.9766 2100.0474 2110.4514 2147.6457 2147.3856 2134.3806 2124.7569 2121.6357 2132.2998 2105.5095 2087.3025 2127.618 2140.623 
2104 2031 2132.5599 2119.815 2097.9666 2112.012 2161.9512 2144.2644 2129.1786 2121.1155 2116.1736 2129.6988 2104.9893 2095.3656 2124.4968 2137.2417 
2103 2031 2132.5599 2121.3756 2100.8277 2114.8731 2147.3856 2141.9235 2133.6003 2133.0801 2127.0978 2136.4614 2100.3075 2104.4691 2124.2367 2139.3225 
2100 2033 2133.8604 2127.3579 2101.608 2113.8327 2129.9589 2141.9235 2135.6811 2133.8604 2129.6988 2136.4614 2097.7065 2109.9312 2122.6761 2139.3225 
2097 2038 2134.3806 2125.017 2099.7873 2113.3125 2140.8831 2140.1028 2127.618 2119.815 2120.5953 2131.5195 2105.2494 2114.8731 2124.2367 2138.8023 
2096 2044 2135.6811 2119.2948 2102.1282 2115.6534 2151.2871 2137.5018 2125.017 2119.5549 2123.9766 2130.9993 2110.9716 2120.0751 2129.1786 2142.1836 
2094 2054 2140.8831 2123.1963 2108.1105 2115.3933 2146.0851 2144.5245 2131.2594 2130.4791 2133.8604 2135.6811 2112.2721 2125.2771 2134.6407 2147.6457 
2092 2057 2138.5422 2121.8958 2106.81 2107.5903 2138.022 2145.825 2131.7796 2129.9589 2129.4387 2135.9412 2111.4918 2122.9362 2130.7392 2145.0447 
2089 2060 2132.0397 2116.9539 2101.608 2101.0878 2139.8427 2139.3225 2132.82 2131.5195 2126.5776 2144.0043 2108.3706 2116.9539 2126.3175 2139.3225 
2088 2059 2133.6003 2121.6357 2100.8277 2105.7696 2147.3856 2142.9639 2140.8831 2138.5422 2129.4387 2147.9058 2106.5499 2116.4337 2130.219 2140.8831 
2085 2054 2132.82 2123.1963 2096.1459 2107.3302 2135.9412 2143.7442 2141.9235 2131.7796 2123.1963 2126.0574 2105.2494 2110.9716 2127.8781 2139.0624 
2082 2053 2127.618 2119.0347 2092.5045 2105.5095 2123.1963 2139.5826 2137.7619 2128.6584 2124.7569 2115.3933 2104.7292 2104.209 2121.3756 2133.6003 
2075 2052 2131.5195 2123.9766 2100.8277 2113.8327 2137.5018 2146.0851 2138.022 2137.7619 2137.5018 2143.4841 2108.8908 2107.3302 2126.0574 2137.5018 
2073 2051 2133.3402 2125.7973 2102.6484 2116.4337 2146.6053 2147.1255 2135.6811 2132.5599 2132.5599 2153.1078 2107.5903 2106.2898 2127.8781 2138.8023 
2070 2049 2121.8958 2115.3933 2091.204 2103.4287 2132.0397 2130.9993 2128.1382 2117.4741 2115.1332 2122.416 2097.4464 2095.1055 2116.9539 2128.6584 
2069 2045 2118.2544 2112.5322 2090.6838 2099.007 2124.7569 2126.8377 2127.8781 2122.416 2120.3352 2119.815 2100.0474 2094.8454 2116.6938 2127.3579 
2070 2044 2125.017 2119.815 2098.2267 2107.5903 2132.82 2138.5422 2132.82 2133.6003 2133.6003 2140.8831 2110.4514 2101.3479 2127.0978 2134.1205 
2072 2045 2121.6357 2118.7746 2093.0247 2106.81 2140.1028 2135.6811 2129.6988 2128.6584 2127.0978 2141.6634 2105.5095 2093.2848 2121.6357 2130.7392 
2073 2045 2124.7569 2120.3352 2093.5449 2105.7696 2136.4614 2132.5599 2130.7392 2127.0978 2122.416 2135.6811 2102.1282 2090.4237 2119.2948 2131.5195 
2073 2043 2144.0043 2135.421 2109.6711 2118.7746 2135.1609 2149.2063 2145.0447 2139.5826 2136.4614 2138.5422 2116.4337 2105.5095 2135.9412 2146.0851 
2072 2038 2148.6861 2134.6407 2114.3529 2120.3352 2147.3856 2154.6684 2147.3856 2146.8654 2142.7038 2141.6634 2122.6761 2109.6711 2142.4437 2151.027 
2070 2034 2136.2013 2119.0347 2104.7292 2105.5095 2149.7265 2136.9816 2130.4791 2137.7619 2130.9993 2135.9412 2114.0928 2097.7065 2132.0397 2144.2644 
2068 2027 2135.6811 2125.2771 2105.5095 2107.3302 2136.7215 2134.1205 2127.8781 2130.219 2126.8377 2132.5599 2113.5726 2096.1459 2129.1786 2144.7846 
2066 2023 2141.1432 2134.3806 2110.9716 2118.2544 2133.3402 2144.7846 2137.7619 2131.7796 2131.2594 2139.5826 2116.4337 2099.007 2132.5599 2145.3048 
2064 2022 2137.2417 2122.416 2107.3302 2114.8731 2146.3452 2143.224 2133.6003 2132.2998 2128.1382 2149.9866 2114.0928 2093.2848 2129.6988 2139.3225 
2059 2022 2135.421 2119.815 2104.209 2110.9716 2149.2063 2138.8023 2133.0801 2130.7392 2122.6761 2141.9235 2113.3125 2089.6434 2128.1382 2138.2821 
2056 2021 2137.7619 2131.7796 2107.8504 2116.6938 2130.219 2138.8023 2140.1028 2128.9185 2120.5953 2125.5372 2114.3529 2091.4641 2129.9589 2139.5826 
2054 2021 2141.9235 2135.1609 2115.3933 2122.1559 2131.7796 2143.4841 2135.9412 2130.4791 2125.7973 2134.9008 2118.2544 2096.9262 2133.3402 2142.4437 
2053 2020 2146.3452 2131.5195 2120.8554 2124.2367 2157.2694 2148.6861 2129.1786 2134.6407 2133.8604 2149.4664 2124.7569 2102.9085 2139.3225 2148.6861 
2053 2019 2141.1432 2128.9185 2116.4337 2122.416 2146.6053 2140.623 2129.6988 2131.5195 2129.6988 2141.9235 2123.7165 2098.2267 2139.3225 2147.9058 
2051 2019 2138.022 2133.3402 2113.5726 2121.3756 2118.2544 2134.6407 2134.1205 2129.9589 2123.7165 2135.421 2119.815 2093.2848 2135.9412 2144.2644 
2050 2020 2145.3048 2136.9816 2117.4741 2120.8554 2130.4791 2141.6634 2137.2417 2136.2013 2129.9589 2146.3452 2122.6761 2098.2267 2137.7619 2147.6457 
2049 2023 2148.426 2132.0397 2118.7746 2120.0751 2147.1255 2143.224 2134.6407 2135.1609 2131.5195 2149.2063 2123.9766 2100.8277 2138.5422 2149.7265 
2051 2025 2145.3048 2133.0801 2116.9539 2124.7569 2133.6003 2137.5018 2130.219 2129.1786 2128.6584 2139.5826 2118.2544 2096.9262 2132.5599 2146.0851 
2052 2022 2143.4841 2137.2417 2115.9135 2128.1382 2128.6584 2136.9816 2130.219 2132.2998 2130.7392 2136.4614 2114.3529 2093.2848 2128.6584 2145.0447 
2052 2020 2139.3225 2132.5599 2114.8731 2124.2367 2139.0624 2138.8023 2130.9993 2130.9993 2126.8377 2134.6407 2114.613 2091.7242 2130.7392 2144.5245 
2055 2013 2136.2013 2126.5776 2112.2721 2120.5953 2142.4437 2141.9235 2133.8604 2128.1382 2122.416 2127.8781 2115.1332 2091.4641 2129.6988 2143.4841 
2056 2008 2141.1432 2129.4387 2113.5726 2120.0751 2137.2417 2146.6053 2140.8831 2141.4033 2130.7392 2129.9589 2117.214 2095.1055 2129.1786 2144.5245 
2057 1996 2147.9058 2141.9235 2120.8554 2126.0574 2138.2821 2148.6861 2140.8831 2146.6053 2134.9008 2145.3048 2121.8958 2102.9085 2136.2013 2147.1255 
2057 1990 2150.2467 2151.027 2125.7973 2136.2013 2144.5245 2148.6861 2134.6407 2128.6584 2126.0574 2151.8073 2123.4564 2109.6711 2136.7215 2148.426 
2058 1978 2145.5649 2142.7038 2120.3352 2132.5599 2143.4841 2144.2644 2130.4791 2117.4741 2120.8554 2142.4437 2120.8554 2108.3706 2129.9589 2146.8654 
2058 1967 2141.4033 2133.3402 2113.8327 2120.8554 2139.5826 2141.6634 2131.2594 2125.5372 2125.017 2133.3402 2120.5953 2104.9893 2133.3402 2145.825 
2060 1950 2145.825 2138.8023 2115.9135 2124.2367 2139.0624 2146.0851 2135.9412 2131.5195 2129.4387 2132.2998 2121.8958 2106.0297 2140.623 2147.1255 
2066 1928 2147.3856 2143.7442 2116.6938 2131.7796 2138.8023 2144.7846 2136.7215 2130.4791 2132.0397 2142.9639 2122.416 2106.81 2138.8023 2147.9058 
2064 1960 2140.1028 2136.4614 2113.3125 2125.5372 2140.1028 2139.3225 2132.82 2130.7392 2132.5599 2149.4664 2125.5372 2106.0297 2136.9816 2145.5649 
2054 2076 2135.421 2129.9589 2113.5726 2118.7746 2137.7619 2138.8023 2135.1609 2131.2594 2130.4791 2136.4614 2127.3579 2105.7696 2139.8427 2144.2644 
2048 2104 2139.3225 2134.9008 2115.3933 2124.7569 2126.8377 2139.8427 2138.5422 2131.5195 2129.6988 2132.2998 2125.017 2105.5095 2140.1028 2146.6053 
2052 2058 2140.623 2139.8427 2115.1332 2130.9993 2131.2594 2141.9235 2135.1609 2131.2594 2132.5599 2148.6861 2124.2367 2106.81 2138.5422 2146.0851 
2054 2015 2132.2998 2129.6988 2115.6534 2123.1963 2144.0043 2138.2821 2133.3402 2130.219 2131.7796 2144.0043 2121.6357 2105.7696 2135.421 2138.2821 
2058 1947 2126.3175 2129.9589 2122.1559 2120.8554 2139.5826 2132.2998 2134.6407 2128.6584 2130.4791 2126.0574 2120.5953 2099.007 2136.2013 2135.9412 
2060 1932 2134.9008 2152.3275 2134.9008 2136.9816 2138.8023 2139.8427 2131.7796 2129.4387 2134.6407 2129.9589 2132.2998 2091.204 2147.3856 2145.0447 
2060 1969 2142.4437 2156.229 2136.7215 2142.7038 2154.4083 2147.3856 2129.6988 2131.5195 2135.1609 2140.3629 2138.022 2083.9212 2151.5472 2151.2871 
2054 2015 2134.9008 2137.2417 2124.7569 2129.9589 2157.0093 2138.5422 2130.4791 2130.219 2129.6988 2140.1028 2126.0574 2082.1005 2137.7619 2144.2644 
2050 2081 2129.4387 2136.4614 2121.1155 2129.6988 2140.3629 2134.1205 2130.4791 2128.9185 2129.6988 2139.3225 2118.7746 2089.1232 2128.1382 2137.2417 
2050 2079 2134.1205 2140.8831 2125.017 2130.219 2137.5018 2141.1432 2130.4791 2129.4387 2130.219 2138.8023 2119.5549 2093.2848 2130.9993 2139.3225 
2055 2060 2132.5599 2127.618 2119.815 2116.9539 2146.6053 2138.2821 2131.2594 2128.6584 2124.7569 2134.6407 2114.3529 2087.5626 2130.7392 2138.2821 
2061 2002 2123.9766 2123.1963 2116.6938 2119.0347 2143.7442 2130.219 2129.9589 2125.5372 2122.416 2128.9185 2112.7923 2082.1005 2127.0978 2132.5599 
2065 1976 2121.6357 2132.5599 2121.8958 2133.3402 2135.1609 2129.1786 2128.9185 2122.9362 2124.2367 2124.7569 2113.8327 2077.4187 2128.6584 2132.82 
2075 1954 2125.7973 2134.3806 2124.2367 2133.3402 2137.7619 2133.8604 2129.1786 2123.1963 2123.7165 2120.8554 2108.8908 2070.1359 2130.9993 2138.2821 
2079 1959 2130.9993 2135.6811 2126.3175 2132.2998 2141.9235 2138.5422 2130.219 2125.2771 2121.6357 2120.5953 2107.5903 2070.6561 2128.9185 2141.4033 
2086 1981 2135.6811 2141.4033 2130.4791 2140.3629 2130.219 2138.022 2129.4387 2119.2948 2117.214 2123.7165 2110.7115 2078.7192 2125.2771 2141.6634 
2091 1995 2136.9816 2135.421 2130.4791 2139.3225 2128.3983 2134.9008 2129.1786 2125.2771 2120.5953 2125.017 2105.2494 2084.7015 2121.1155 2142.9639 
2099 2014 2139.5826 2126.3175 2130.4791 2135.1609 2143.4841 2137.7619 2132.2998 2142.7038 2131.5195 2132.5599 2098.4868 2089.3833 2117.9943 2145.825 
2105 2015 2146.3452 2132.5599 2132.0397 2141.9235 2147.1255 2144.5245 2130.9993 2128.9185 2126.0574 2133.8604 2099.2671 2092.2444 2119.0347 2147.1255 
2118 2000 2147.6457 2136.7215 2130.9993 2144.7846 2138.5422 2142.4437 2123.1963 2099.5272 2109.6711 2113.8327 2100.0474 2088.0828 2121.3756 2144.7846 
2125 1988 2144.0043 2132.2998 2130.9993 2140.1028 2138.2821 2137.5018 2120.3352 2106.5499 2113.3125 2115.6534 2102.1282 2086.002 2121.8958 2145.0447 
2131 1983 2146.6053 2131.5195 2133.0801 2139.5826 2138.5422 2139.0624 2127.618 2124.2367 2122.416 2143.224 2105.2494 2088.3429 2122.9362 2148.6861 
2144 1993 2146.8654 2129.4387 2129.4387 2137.7619 2130.4791 2139.3225 2130.7392 2117.4741 2114.8731 2134.1205 2100.5676 2082.6207 2120.3352 2146.6053 
2144 1993 2146.8654 2129.4387 2129.4387 2137.7619 2130.4791 2139.3225 2130.7392 2117.4741 2114.8731 2134.1205 2100.5676 2082.6207 2120.3352 2146.6053 
2148 2006 2141.1432 2126.8377 2126.0574 2134.3806 2131.2594 2135.9412 2124.2367 2114.0928 2112.2721 2110.9716 2099.007 2076.3783 2118.2544 2144.2644 
2159 2029 2146.8654 2136.7215 2132.2998 2143.4841 2144.0043 2141.1432 2120.3352 2125.017 2127.3579 2131.5195 2110.4514 2085.4818 2127.0978 2151.027 
2165 2038 2155.7088 2142.7038 2136.9816 2149.2063 2153.628 2148.6861 2123.7165 2130.9993 2135.1609 2156.7492 2119.0347 2096.6661 2135.6811 2155.9689 
2177 2055 2150.2467 2130.4791 2128.3983 2136.4614 2149.2063 2145.0447 2123.9766 2129.1786 2130.7392 2148.9462 2116.1736 2092.7646 2132.0397 2149.4664 
2182 2061 2141.6634 2129.1786 2121.8958 2133.0801 2128.3983 2138.5422 2122.416 2129.9589 2131.5195 2135.9412 2112.2721 2084.9616 2129.4387 2142.4437 
2191 2075 2139.3225 2136.7215 2123.9766 2140.623 2117.9943 2138.5422 2125.7973 2130.219 2132.82 2133.3402 2108.3706 2083.1409 2130.9993 2140.1028 
2196 2080 2133.6003 2123.7165 2120.0751 2131.2594 2138.022 2136.9816 2124.4968 2117.9943 2123.4564 2132.0397 2106.5499 2080.0197 2124.7569 2136.9816 
2207 2088 2129.6988 2115.6534 2117.7342 2122.6761 2148.6861 2135.6811 2123.9766 2112.012 2119.0347 2128.6584 2110.7115 2079.2394 2123.9766 2136.9816 
2212 2089 2132.0397 2124.7569 2120.5953 2127.618 2126.5776 2136.2013 2130.4791 2122.6761 2124.7569 2128.9185 2109.6711 2078.9793 2126.8377 2138.8023 
2221 2091 2129.1786 2119.0347 2117.7342 2123.4564 2119.5549 2130.9993 2128.9185 2121.6357 2121.1155 2131.7796 2099.7873 2073.7773 2119.5549 2134.9008 
2226 2090 2121.8958 2104.209 2112.2721 2113.3125 2133.8604 2126.0574 2120.3352 2111.2317 2112.2721 2123.4564 2095.3656 2071.4364 2113.5726 2133.8604 
2231 2088 2122.416 2108.6307 2112.012 2114.613 2128.1382 2127.8781 2121.6357 2115.3933 2115.9135 2116.9539 2100.3075 2073.7773 2114.8731 2136.4614 
2237 2083 2129.6988 2121.1155 2116.6938 2121.3756 2117.4741 2133.0801 2128.9185 2127.8781 2126.5776 2132.82 2106.2898 2076.1182 2119.2948 2138.5422 
2241 2081 2134.1205 2125.017 2121.1155 2126.3175 2130.219 2139.3225 2131.2594 2134.9008 2132.82 2149.4664 2109.1509 2080.5399 2126.3175 2143.7442 
2250 2077 2130.9993 2122.416 2117.9943 2127.3579 2135.6811 2139.0624 2129.1786 2132.82 2131.5195 2138.2821 2106.5499 2080.5399 2127.0978 2142.7038 
2254 2073 2123.7165 2115.3933 2107.0701 2119.2948 2127.0978 2130.7392 2125.7973 2126.3175 2127.3579 2119.0347 2100.0474 2069.3556 2115.9135 2132.2998 
2264 2066 2123.1963 2112.012 2106.5499 2114.0928 2132.5599 2132.5599 2128.1382 2129.4387 2129.9589 2130.9993 2101.8681 2067.795 2115.6534 2131.2594 
2268 2062 2126.0574 2108.8908 2114.0928 2113.3125 2135.6811 2136.4614 2131.5195 2133.6003 2130.4791 2140.623 2107.5903 2075.598 2124.7569 2138.5422 
2276 2056 2122.416 2101.608 2112.7923 2110.9716 2129.9589 2131.2594 2129.1786 2128.6584 2125.2771 2125.7973 2107.0701 2074.8177 2123.1963 2138.022 
2279 2053 2125.5372 2111.7519 2113.5726 2117.4741 2130.4791 2133.6003 2130.219 2129.4387 2128.1382 2127.0978 2110.4514 2077.1586 2125.2771 2138.2821 
2283 2046 2134.6407 2125.2771 2117.4741 2123.7165 2126.3175 2137.5018 2132.2998 2132.0397 2133.3402 2142.7038 2117.214 2083.6611 2130.7392 2141.4033 
2285 2046 2130.219 2111.7519 2113.0524 2112.5322 2120.5953 2130.4791 2126.5776 2124.2367 2129.6988 2141.9235 2114.613 2081.5803 2125.017 2138.2821 
2286 2046 2121.3756 2099.2671 2108.6307 2103.4287 2123.9766 2127.8781 2122.6761 2120.5953 2127.8781 2133.0801 2111.2317 2081.0601 2120.5953 2135.1609 
2284 2047 2125.7973 2109.6711 2113.3125 2108.8908 2126.0574 2134.9008 2127.618 2129.6988 2133.0801 2130.7392 2115.3933 2092.5045 2129.6988 2138.5422 
2283 2048 2129.6988 2111.4918 2116.4337 2111.4918 2127.3579 2136.7215 2130.4791 2133.0801 2132.82 2130.7392 2117.4741 2102.1282 2134.6407 2140.623 
2284 2051 2124.7569 2106.2898 2113.0524 2108.1105 2129.1786 2136.4614 2129.4387 2128.3983 2130.9993 2136.9816 2115.9135 2105.5095 2127.8781 2138.022 
2284 2051 2123.1963 2113.3125 2108.6307 2107.8504 2123.4564 2138.2821 2132.2998 2130.219 2134.6407 2144.2644 2115.3933 2112.012 2123.7165 2136.9816 
2286 2054 2122.1559 2108.1105 2103.1686 2105.2494 2125.5372 2136.9816 2130.4791 2129.1786 2133.8604 2136.2013 2113.5726 2117.9943 2125.2771 2136.4614 
2288 2057 2121.1155 2101.608 2107.8504 2105.2494 2135.6811 2138.022 2123.7165 2121.6357 2130.7392 2129.1786 2117.214 2128.3983 2131.7796 2138.8023 
2289 2059 2127.3579 2113.5726 2115.6534 2107.5903 2129.9589 2139.8427 2126.0574 2124.2367 2131.2594 2136.9816 2125.017 2141.4033 2136.7215 2142.4437 
2291 2059 2129.9589 2111.7519 2108.8908 2100.5676 2120.5953 2134.3806 2130.7392 2130.4791 2131.7796 2145.825 2124.2367 2140.1028 2132.5599 2140.8831 
2295 2062 2129.6988 2105.2494 2109.6711 2099.7873 2115.6534 2130.9993 2128.9185 2130.4791 2133.8604 2142.1836 2122.1559 2140.3629 2131.5195 2141.1432 
2296 2063 2138.5422 2123.1963 2126.5776 2114.613 2111.7519 2137.7619 2131.5195 2132.82 2139.0624 2136.7215 2129.9589 2156.229 2140.3629 2148.1659 
2300 2065 2144.2644 2130.219 2130.9993 2124.7569 2127.8781 2141.6634 2135.6811 2135.9412 2137.2417 2141.1432 2135.1609 2164.032 2143.224 2152.0674 
2302 2064 2134.3806 2113.3125 2120.5953 2121.8958 2138.5422 2135.1609 2131.5195 2129.4387 2129.9589 2137.5018 2125.017 2152.3275 2134.1205 2146.0851 
2305 2065 2129.1786 2111.7519 2121.8958 2120.3352 2125.5372 2132.5599 2129.1786 2129.1786 2132.0397 2133.6003 2114.8731 2145.5649 2127.0978 2139.5826 
2308 2063 2135.421 2126.0574 2127.618 2125.7973 2123.9766 2137.2417 2132.5599 2135.6811 2135.6811 2139.0624 2114.8731 2146.3452 2126.8377 2139.0624 
2310 2062 2135.1609 2131.2594 2125.5372 2133.6003 2128.9185 2137.7619 2130.7392 2128.1382 2128.6584 2134.3806 2113.3125 2140.623 2123.9766 2140.1028 
2316 2058 2129.9589 2132.0397 2124.4968 2139.8427 2122.9362 2136.7215 2129.1786 2119.0347 2123.4564 2123.9766 2105.2494 2132.82 2117.214 2137.2417 
2320 2046 2134.3806 2139.5826 2133.0801 2146.8654 2142.9639 2139.0624 2126.8377 2116.9539 2118.2544 2123.4564 2099.5272 2130.4791 2115.3933 2133.0801 
2320 2043 2139.8427 2148.1659 2140.3629 2160.1305 2141.6634 2140.3629 2125.5372 2115.3933 2119.815 2118.2544 2106.0297 2135.1609 2123.7165 2139.0624 
2322 2039 2144.2644 2153.3679 2141.9235 2162.2113 2131.5195 2143.4841 2129.6988 2121.3756 2130.9993 2123.1963 2108.3706 2134.9008 2122.6761 2144.2644 
2324 2037 2142.7038 2146.8654 2136.9816 2151.5472 2129.4387 2140.623 2130.4791 2123.9766 2131.5195 2130.4791 2102.6484 2128.6584 2115.9135 2144.0043 
2328 2042 2137.7619 2137.2417 2135.6811 2145.3048 2134.3806 2136.2013 2128.6584 2120.0751 2122.1559 2128.6584 2100.3075 2122.9362 2116.1736 2140.623 
2330 2049 2138.5422 2136.2013 2138.8023 2146.6053 2139.5826 2137.5018 2129.1786 2120.3352 2123.1963 2133.6003 2110.1913 2126.5776 2125.017 2142.9639 
2330 2055 2141.9235 2141.4033 2137.7619 2145.0447 2127.0978 2137.7619 2130.4791 2124.4968 2130.7392 2132.5599 2116.6938 2129.1786 2130.4791 2147.3856 
2332 2054 2146.8654 2148.6861 2137.7619 2145.5649 2118.7746 2141.4033 2134.3806 2130.219 2135.9412 2117.214 2115.6534 2126.0574 2130.9993 2148.9462 
2335 2048 2147.9058 2149.2063 2138.022 2145.3048 2135.1609 2147.3856 2139.5826 2131.7796 2135.1609 2119.5549 2115.3933 2122.6761 2130.9993 2149.2063 
2337 2048 2140.3629 2134.9008 2128.9185 2134.1205 2141.1432 2142.7038 2141.6634 2125.2771 2126.8377 2131.5195 2110.7115 2114.3529 2126.0574 2145.0447 
2338 2050 2133.8604 2126.0574 2120.0751 2125.5372 2128.1382 2133.8604 2138.022 2121.1155 2123.4564 2126.8377 2103.9489 2104.9893 2119.0347 2139.3225 
2339 2054 2138.022 2133.6003 2125.5372 2129.6988 2126.8377 2135.9412 2133.0801 2123.1963 2129.1786 2123.4564 2110.9716 2108.6307 2125.017 2144.5245 
2340 2055 2144.5245 2141.9235 2135.6811 2137.7619 2135.6811 2141.6634 2131.2594 2127.618 2133.3402 2137.7619 2124.7569 2118.5145 2138.022 2152.5876 
2340 2051 2141.6634 2140.3629 2131.7796 2135.421 2128.6584 2139.5826 2130.219 2129.6988 2131.7796 2141.1432 2125.5372 2117.214 2135.6811 2149.2063 
2341 2047 2136.2013 2134.1205 2124.4968 2127.618 2118.2544 2135.6811 2131.7796 2129.1786 2134.1205 2130.9993 2121.1155 2112.2721 2128.3983 2143.4841 
2342 2040 2137.7619 2129.9589 2125.5372 2125.017 2127.0978 2138.2821 2138.2821 2132.5599 2138.5422 2135.421 2123.4564 2110.1913 2133.6003 2145.3048 
2339 2038 2138.022 2129.1786 2127.0978 2124.4968 2137.5018 2139.3225 2140.623 2133.0801 2134.9008 2136.9816 2124.4968 2106.81 2140.8831 2147.3856 
2337 2030 2133.8604 2130.219 2124.7569 2123.4564 2129.4387 2133.3402 2131.7796 2124.2367 2128.3983 2124.7569 2123.1963 2106.2898 2137.5018 2145.825 
2338 2028 2134.3806 2127.618 2121.6357 2118.5145 2125.017 2132.0397 2128.3983 2121.1155 2129.4387 2127.618 2123.4564 2107.0701 2130.7392 2144.7846 
2334 2025 2139.8427 2128.1382 2123.9766 2114.3529 2131.5195 2138.2821 2136.9816 2129.4387 2134.1205 2142.7038 2124.7569 2108.3706 2135.1609 2147.9058 
2334 2023 2140.1028 2133.3402 2128.9185 2119.815 2123.9766 2139.5826 2138.5422 2129.4387 2131.7796 2142.9639 2124.4968 2110.4514 2138.022 2149.2063 
2333 2022 2136.7215 2135.6811 2131.2594 2132.2998 2117.7342 2135.6811 2130.4791 2118.5145 2126.0574 2131.7796 2122.9362 2111.7519 2130.4791 2144.7846 
2330 2014 2140.8831 2141.4033 2134.9008 2141.9235 2136.4614 2137.7619 2128.3983 2115.9135 2126.8377 2124.7569 2123.9766 2114.8731 2131.7796 2144.7846 
2330 2012 2145.3048 2148.6861 2139.8427 2146.3452 2145.5649 2141.1432 2132.82 2122.6761 2128.9185 2122.416 2124.7569 2117.214 2139.8427 2148.1659 
2330 2015 2140.3629 2144.2644 2138.5422 2146.8654 2125.017 2136.7215 2132.0397 2122.416 2125.7973 2130.7392 2118.5145 2112.2721 2131.7796 2144.0043 
2331 2018 2134.6407 2135.6811 2130.219 2142.1836 2118.2544 2129.4387 2126.5776 2116.1736 2122.6761 2135.9412 2107.0701 2104.209 2115.3933 2136.4614 
2330 2025 2135.6811 2140.1028 2128.3983 2146.0851 2138.5422 2132.5599 2128.3983 2116.9539 2123.4564 2117.4741 2103.6888 2103.6888 2116.9539 2136.2013 
2331 2029 2140.8831 2148.426 2135.6811 2154.9285 2145.0447 2141.4033 2136.4614 2122.416 2123.7165 2103.4287 2109.6711 2108.8908 2127.3579 2141.4033 
2331 2035 2143.224 2147.6457 2138.8023 2150.2467 2131.2594 2140.623 2135.6811 2122.6761 2124.4968 2115.6534 2110.9716 2109.6711 2126.5776 2143.4841 
2332 2036 2142.9639 2148.1659 2135.6811 2146.8654 2128.6584 2136.2013 2128.3983 2123.1963 2130.219 2128.3983 2106.81 2107.5903 2121.1155 2142.1836 
2331 2042 2140.1028 2149.7265 2134.3806 2152.0674 2133.8604 2137.7619 2133.8604 2127.3579 2130.9993 2126.3175 2105.2494 2105.2494 2120.0751 2139.8427 
2331 2046 2133.6003 2142.4437 2131.7796 2146.6053 2125.017 2136.7215 2140.623 2121.3756 2123.1963 2116.4337 2106.5499 2100.5676 2121.1155 2137.7619 
2330 2051 2129.9589 2140.623 2125.5372 2137.7619 2125.5372 2134.6407 2130.9993 2111.4918 2119.2948 2115.6534 2111.7519 2097.9666 2123.9766 2138.8023 
2330 2053 2131.2594 2147.3856 2124.4968 2140.3629 2144.0043 2135.9412 2120.5953 2113.8327 2123.9766 2125.017 2117.9943 2100.0474 2128.9185 2139.0624 
2330 2054 2131.7796 2142.4437 2125.7973 2136.4614 2146.6053 2135.1609 2121.3756 2118.7746 2126.0574 2127.3579 2114.3529 2098.7469 2124.7569 2134.9008 
2329 2049 2130.219 2135.1609 2123.7165 2127.3579 2122.6761 2129.4387 2125.7973 2118.2544 2121.1155 2115.9135 2107.5903 2091.7242 2119.2948 2132.2998 
2327 2047 2136.7215 2146.6053 2127.8781 2133.6003 2117.214 2136.2013 2134.3806 2125.7973 2126.0574 2119.2948 2113.5726 2093.2848 2127.618 2139.3225 
2329 2048 2140.623 2145.0447 2132.0397 2131.2594 2141.6634 2147.6457 2141.9235 2134.6407 2135.1609 2134.6407 2116.6938 2097.1863 2131.5195 2143.7442 
2329 2053 2124.4968 2122.6761 2119.2948 2110.1913 2140.623 2135.9412 2137.2417 2127.0978 2126.8377 2118.7746 2103.9489 2085.4818 2120.0751 2132.0397 
2333 2067 2110.4514 2120.3352 2105.5095 2106.5499 2117.214 2121.3756 2130.219 2118.7746 2117.7342 2101.608 2095.6257 2071.1763 2111.4918 2121.3756 
2335 2071 2115.1332 2131.7796 2104.7292 2117.9943 2113.8327 2126.8377 2132.5599 2121.6357 2123.9766 2109.9312 2101.3479 2072.7369 2113.5726 2126.0574 
2345 2066 2122.6761 2129.9589 2110.9716 2116.9539 2119.815 2132.2998 2132.2998 2123.4564 2125.5372 2115.9135 2105.2494 2080.8 2115.9135 2131.5195 
2351 2060 2124.7569 2128.9185 2117.7342 2114.613 2123.4564 2129.1786 2133.6003 2121.8958 2122.416 2120.0751 2104.4691 2082.1005 2117.4741 2130.9993 
2365 2052 2129.1786 2135.6811 2121.6357 2120.3352 2131.5195 2129.4387 2139.3225 2124.4968 2129.6988 2128.3983 2106.81 2082.6207 2121.1155 2134.3806 
2370 2051 2131.2594 2134.6407 2121.6357 2118.5145 2129.9589 2132.2998 2134.6407 2123.9766 2131.7796 2127.3579 2112.2721 2083.401 2125.5372 2139.5826 
2374 2057 2130.9993 2133.8604 2122.416 2117.214 2129.6988 2136.2013 2128.1382 2122.1559 2125.7973 2120.3352 2119.5549 2082.8808 2133.0801 2139.3225 
2384 2063 2134.9008 2133.0801 2125.2771 2120.8554 2148.9462 2141.9235 2134.1205 2126.0574 2128.3983 2122.6761 2125.5372 2086.2621 2137.7619 2139.8427 
2387 2069 2134.9008 2125.2771 2123.9766 2115.1332 2144.2644 2138.5422 2132.82 2126.5776 2132.2998 2128.3983 2123.7165 2090.9439 2133.6003 2141.1432 
2395 2079 2134.1205 2128.6584 2122.416 2113.0524 2119.5549 2135.1609 2125.2771 2123.9766 2128.6584 2131.2594 2121.8958 2090.4237 2131.5195 2141.1432 
2399 2080 2136.9816 2136.4614 2121.8958 2120.0751 2125.5372 2140.8831 2134.1205 2129.1786 2129.6988 2132.82 2129.6988 2087.0424 2137.2417 2141.6634 
2408 2076 2133.8604 2122.9362 2116.4337 2113.5726 2144.5245 2141.6634 2143.4841 2135.421 2134.1205 2131.2594 2131.2594 2082.8808 2138.022 2140.1028 
2412 2074 2128.3983 2108.6307 2113.5726 2102.6484 2136.2013 2132.5599 2134.3806 2129.4387 2130.219 2130.9993 2122.1559 2077.1586 2130.7392 2139.0624 
2424 2072 2130.219 2119.0347 2117.214 2107.0701 2116.6938 2128.6584 2131.5195 2123.7165 2127.0978 2120.8554 2125.2771 2075.598 2130.9993 2140.3629 
2428 2072 2129.9589 2117.7342 2115.3933 2102.9085 2123.1963 2132.2998 2145.0447 2129.1786 2129.6988 2113.8327 2128.9185 2075.598 2134.1205 2140.3629 
2436 2069 2127.0978 2103.6888 2114.0928 2093.0247 2137.5018 2133.3402 2143.224 2130.219 2130.7392 2131.7796 2122.1559 2076.8985 2130.9993 2141.4033 
2440 2069 2134.3806 2114.0928 2121.6357 2105.7696 2132.5599 2134.3806 2126.0574 2128.1382 2135.421 2145.825 2131.2594 2086.5222 2138.8023 2146.0851 
2446 2075 2138.8023 2128.9185 2124.7569 2116.4337 2119.0347 2136.7215 2125.017 2135.9412 2144.5245 2137.5018 2149.4664 2093.2848 2152.8477 2148.6861 
2448 2079 2131.7796 2120.3352 2120.3352 2107.8504 2119.2948 2133.6003 2133.8604 2140.3629 2144.5245 2135.9412 2146.6053 2087.5626 2150.2467 2144.7846 
2451 2084 2129.1786 2110.1913 2123.4564 2105.7696 2131.7796 2130.9993 2133.6003 2130.4791 2136.7215 2143.7442 2137.5018 2084.9616 2140.8831 2140.8831 
2454 2093 2136.4614 2117.214 2134.6407 2118.5145 2139.3225 2135.6811 2134.1205 2128.9185 2134.9008 2136.2013 2139.5826 2093.0247 2142.9639 2143.7442 
2457 2095 2144.5245 2128.6584 2142.7038 2134.9008 2133.8604 2139.3225 2139.5826 2139.0624 2139.0624 2128.1382 2140.1028 2100.5676 2146.0851 2148.426 
2461 2102 2147.3856 2134.1205 2147.9058 2144.0043 2119.0347 2140.3629 2142.9639 2140.3629 2141.4033 2132.82 2137.7619 2101.608 2143.4841 2149.4664 
2463 2101 2143.4841 2127.3579 2148.6861 2135.6811 2120.5953 2139.3225 2142.9639 2131.2594 2134.6407 2126.5776 2132.82 2096.406 2139.8427 2146.6053 
2468 2095 2138.5422 2119.5549 2145.0447 2129.1786 2139.8427 2133.8604 2137.2417 2126.0574 2126.3175 2119.2948 2124.2367 2093.0247 2135.421 2144.0043 
2469 2090 2151.027 2137.2417 2152.0674 2154.6684 2152.0674 2142.9639 2137.2417 2135.421 2135.1609 2134.9008 2131.5195 2103.4287 2143.7442 2151.027 
2473 2073 2163.5118 2160.1305 2163.7719 2179.1178 2147.3856 2157.0093 2140.3629 2140.1028 2143.4841 2140.8831 2142.4437 2108.8908 2151.8073 2158.5699 
2474 2065 2151.027 2155.9689 2156.229 2170.5345 2131.5195 2147.6457 2131.7796 2127.3579 2130.7392 2125.017 2129.4387 2091.9843 2136.7215 2149.2063 
2478 2055 2135.6811 2136.9816 2139.8427 2155.1886 2130.7392 2134.6407 2126.3175 2117.4741 2119.0347 2118.2544 2110.7115 2075.3379 2120.3352 2136.9816 
2480 2053 2135.9412 2128.3983 2136.7215 2151.2871 2143.4841 2138.022 2130.7392 2120.8554 2120.8554 2118.5145 2106.81 2075.0778 2120.0751 2136.9816 
2484 2051 2139.5826 2136.4614 2140.623 2155.1886 2136.4614 2140.623 2131.2594 2123.4564 2123.1963 2115.3933 2107.3302 2075.598 2121.1155 2139.0624 
2486 2051 2137.7619 2141.4033 2137.2417 2160.6507 2121.6357 2136.2013 2127.3579 2118.7746 2120.3352 2115.3933 2103.1686 2069.0955 2114.0928 2135.421 
2489 2049 2136.9816 2133.6003 2134.6407 2160.6507 2140.1028 2137.5018 2129.4387 2117.9943 2119.2948 2118.2544 2102.9085 2068.8354 2112.5322 2136.4614 
2491 2045 2139.5826 2127.618 2138.022 2155.4487 2154.9285 2140.8831 2132.82 2122.416 2121.1155 2117.7342 2107.3302 2074.8177 2120.5953 2142.7038 
2490 2044 2139.5826 2132.0397 2137.2417 2154.1482 2135.9412 2138.8023 2131.2594 2122.9362 2122.416 2122.1559 2107.3302 2076.1182 2122.1559 2142.9639 
2490 2044 2138.022 2135.1609 2132.82 2157.2694 2129.6988 2137.2417 2132.2998 2119.815 2121.3756 2126.0574 2104.4691 2071.6965 2117.4741 2138.5422 
2488 2046 2141.1432 2136.9816 2135.1609 2162.9916 2137.5018 2142.7038 2138.5422 2125.5372 2122.416 2116.6938 2105.2494 2074.5576 2119.2948 2141.6634 
2483 2049 2149.4664 2143.224 2142.9639 2169.7542 2139.0624 2148.1659 2137.5018 2130.9993 2125.7973 2107.0701 2110.9716 2088.0828 2128.6584 2149.4664 
2479 2050 2146.0851 2142.7038 2139.5826 2165.8527 2136.9816 2138.8023 2124.4968 2118.2544 2119.0347 2106.81 2106.2898 2092.2444 2123.4564 2143.4841 
2473 2053 2134.9008 2137.5018 2129.1786 2159.8704 2134.6407 2130.219 2119.815 2109.411 2112.012 2114.8731 2094.0651 2089.1232 2106.0297 2132.2998 
2471 2052 2133.8604 2137.7619 2130.7392 2165.5926 2138.5422 2136.4614 2124.7569 2116.1736 2117.9943 2121.1155 2093.5449 2098.4868 2105.2494 2134.1205 
2465 2051 2139.0624 2138.8023 2136.7215 2169.4941 2145.0447 2140.3629 2123.1963 2115.9135 2121.1155 2115.1332 2100.3075 2113.5726 2115.6534 2139.5826 
2461 2048 2139.3225 2137.7619 2138.2821 2167.6734 2147.3856 2137.5018 2118.2544 2108.3706 2116.6938 2106.0297 2102.6484 2122.416 2117.9943 2138.022 
2453 2049 2138.022 2141.9235 2138.5422 2169.234 2139.8427 2136.4614 2120.5953 2113.0524 2118.5145 2109.9312 2104.4691 2129.4387 2113.8327 2135.9412 
2450 2050 2139.8427 2148.426 2139.8427 2173.9158 2133.0801 2138.5422 2128.1382 2123.7165 2124.2367 2122.1559 2107.8504 2133.6003 2115.6534 2138.5422 
2446 2051 2138.022 2144.0043 2139.0624 2170.7946 2139.0624 2143.4841 2132.2998 2125.017 2125.2771 2114.0928 2108.3706 2135.6811 2121.8958 2137.7619 
2439 2057 2133.6003 2134.6407 2135.9412 2161.9512 2149.9866 2144.7846 2130.9993 2122.9362 2125.5372 2109.6711 2106.2898 2138.8023 2119.815 2134.1205 
2434 2059 2129.9589 2133.0801 2130.219 2159.6103 2149.9866 2136.4614 2128.9185 2120.5953 2121.6357 2118.7746 2101.3479 2133.0801 2110.9716 2131.7796 
2426 2059 2123.1963 2131.5195 2122.416 2158.0497 2139.3225 2127.8781 2129.1786 2114.3529 2112.2721 2115.6534 2093.0247 2121.3756 2101.8681 2127.0978 
2423 2058 2119.2948 2126.8377 2120.3352 2149.2063 2130.7392 2127.618 2129.1786 2112.2721 2112.012 2104.9893 2089.9035 2118.7746 2101.3479 2124.4968 
2415 2055 2126.0574 2131.5195 2123.7165 2145.3048 2119.5549 2129.6988 2130.4791 2118.2544 2118.7746 2096.6661 2099.007 2125.2771 2110.9716 2130.4791 
2412 2055 2130.219 2131.7796 2123.7165 2145.3048 2121.1155 2129.6988 2130.7392 2119.0347 2117.7342 2097.4464 2106.81 2125.017 2116.6938 2134.1205 
2404 2055 2129.4387 2124.4968 2123.9766 2140.623 2137.7619 2131.7796 2127.0978 2115.6534 2114.0928 2108.8908 2104.7292 2122.1559 2114.3529 2132.82 
2401 2053 2137.2417 2137.7619 2133.6003 2147.3856 2141.1432 2138.022 2126.0574 2123.1963 2122.416 2117.7342 2109.1509 2127.8781 2118.7746 2140.1028 
2392 2048 2145.3048 2151.027 2141.6634 2154.4083 2135.1609 2141.1432 2128.9185 2130.4791 2131.2594 2119.5549 2120.5953 2131.7796 2128.1382 2146.8654 
2390 2045 2138.8023 2135.6811 2135.6811 2138.8023 2135.1609 2136.4614 2130.7392 2123.1963 2127.0978 2125.2771 2119.815 2124.2367 2126.8377 2141.6634 
2387 2037 2128.3983 2123.1963 2124.7569 2128.9185 2135.1609 2131.2594 2129.1786 2114.3529 2120.0751 2123.7165 2111.2317 2113.3125 2120.0751 2136.4614 
2384 2035 2126.5776 2132.0397 2121.6357 2136.4614 2129.9589 2129.4387 2125.5372 2113.0524 2117.214 2111.4918 2110.9716 2108.8908 2119.5549 2136.4614 
2379 2033 2128.3983 2130.9993 2122.6761 2136.2013 2131.2594 2128.9185 2123.1963 2114.0928 2114.8731 2116.9539 2112.5322 2107.8504 2121.6357 2136.7215 
2374 2029 2130.7392 2123.1963 2122.9362 2128.1382 2132.5599 2129.9589 2127.8781 2118.5145 2115.1332 2129.4387 2115.1332 2108.6307 2126.0574 2139.5826 
2369 2030 2132.0397 2126.3175 2122.9362 2123.4564 2121.1155 2130.219 2130.9993 2119.5549 2116.1736 2119.2948 2117.214 2110.4514 2127.3579 2140.1028 
2362 2029 2129.6988 2130.219 2124.2367 2121.8958 2115.3933 2128.3983 2125.5372 2114.0928 2113.8327 2101.3479 2111.7519 2108.6307 2122.6761 2134.9008 
2359 2031 2125.7973 2125.2771 2122.9362 2124.2367 2126.5776 2129.4387 2121.1155 2112.2721 2113.0524 2112.7923 2109.1509 2106.81 2120.3352 2134.6407 
2352 2029 2122.1559 2116.4337 2115.9135 2121.1155 2134.6407 2130.7392 2122.6761 2114.0928 2114.3529 2130.9993 2115.1332 2104.4691 2120.3352 2135.9412 
2348 2027 2121.8958 2112.5322 2112.7923 2108.6307 2126.3175 2129.9589 2128.1382 2116.9539 2115.1332 2113.5726 2119.5549 2099.7873 2122.1559 2133.3402 
2344 2023 2120.8554 2113.8327 2113.3125 2101.0878 2116.4337 2127.618 2131.2594 2120.5953 2116.6938 2102.9085 2118.2544 2097.1863 2125.7973 2132.2998 
2342 2022 2121.8958 2116.9539 2113.0524 2106.0297 2126.3175 2127.618 2126.8377 2122.9362 2122.9362 2123.1963 2122.9362 2101.608 2129.1786 2136.9816 
2338 2022 2129.1786 2124.7569 2119.5549 2120.5953 2145.0447 2135.6811 2122.416 2126.8377 2131.7796 2136.4614 2135.1609 2109.411 2135.6811 2144.5245 
2338 2020 2133.3402 2128.9185 2124.4968 2126.8377 2141.4033 2139.0624 2124.2367 2132.2998 2134.9008 2136.7215 2138.8023 2109.9312 2140.8831 2146.0851 
2338 2017 2129.6988 2123.4564 2116.4337 2110.9716 2120.5953 2130.9993 2127.0978 2131.2594 2131.2594 2134.9008 2130.7392 2101.8681 2137.2417 2140.3629 
2337 2010 2127.618 2120.0751 2112.7923 2101.8681 2122.1559 2128.3983 2129.1786 2127.618 2128.9185 2130.7392 2128.3983 2095.6257 2135.6811 2138.022 
2337 2007 2130.7392 2121.1155 2122.1559 2115.3933 2138.5422 2134.1205 2131.7796 2125.2771 2127.0978 2131.2594 2134.6407 2097.9666 2138.2821 2141.4033 
2337 1999 2129.6988 2120.8554 2125.2771 2125.7973 2136.9816 2132.5599 2130.7392 2122.1559 2122.416 2126.8377 2131.5195 2099.7873 2134.9008 2140.3629 
2335 1996 2128.3983 2125.5372 2120.5953 2126.0574 2133.3402 2130.7392 2130.7392 2124.4968 2121.1155 2117.4741 2121.3756 2096.6661 2129.4387 2137.5018 
2334 1994 2132.0397 2130.219 2122.6761 2130.4791 2138.022 2138.5422 2133.8604 2128.1382 2123.4564 2127.0978 2120.5953 2096.406 2129.1786 2140.1028 
2332 2000 2131.5195 2131.5195 2127.3579 2134.1205 2128.3983 2138.2821 2132.82 2124.7569 2123.1963 2129.6988 2122.6761 2097.4464 2127.618 2139.5826 
2324 2024 2124.7569 2130.9993 2120.8554 2129.9589 2119.2948 2130.4791 2128.9185 2122.416 2121.1155 2114.0928 2114.3529 2093.2848 2120.5953 2132.2998 
2318 2032 2120.5953 2128.1382 2112.5322 2133.3402 2132.2998 2133.0801 2129.1786 2122.9362 2121.6357 2115.6534 2106.2898 2089.1232 2116.4337 2127.0978 
2311 2018 2119.5549 2126.5776 2116.4337 2143.224 2143.224 2138.8023 2129.1786 2120.3352 2121.3756 2119.2948 2110.7115 2091.7242 2120.5953 2128.6584 
2309 1998 2116.9539 2130.4791 2123.1963 2146.8654 2140.3629 2134.3806 2125.2771 2122.9362 2121.8958 2110.7115 2116.1736 2096.6661 2126.3175 2130.9993 
2305 1967 2118.2544 2136.9816 2122.9362 2147.1255 2136.9816 2131.7796 2125.7973 2129.9589 2125.7973 2119.5549 2114.8731 2099.007 2123.9766 2129.6988 
2302 1965 2122.6761 2140.8831 2121.8958 2146.6053 2133.6003 2135.6811 2130.9993 2127.618 2126.3175 2132.5599 2113.5726 2099.7873 2121.6357 2129.1786 
2299 1974 2123.4564 2140.3629 2122.6761 2142.1836 2131.2594 2133.0801 2129.4387 2122.1559 2122.1559 2123.4564 2114.8731 2096.9262 2124.7569 2129.6988 
2292 2012 2123.7165 2137.2417 2123.1963 2137.2417 2133.8604 2130.219 2123.4564 2120.0751 2119.2948 2121.8958 2118.5145 2095.8858 2125.7973 2130.7392 
2288 2031 2125.5372 2136.9816 2121.8958 2134.3806 2130.7392 2132.0397 2126.0574 2117.214 2116.9539 2130.4791 2120.8554 2099.5272 2125.2771 2131.7796 
2288 2046 2121.8958 2130.219 2115.3933 2126.8377 2129.9589 2130.4791 2132.0397 2113.8327 2112.012 2131.5195 2114.613 2098.2267 2120.8554 2129.1786 
2288 2039 2120.0751 2122.9362 2114.3529 2124.4968 2136.4614 2128.6584 2131.2594 2120.5953 2117.214 2133.0801 2112.7923 2095.8858 2120.8554 2129.1786 
2292 2014 2127.0978 2132.0397 2122.9362 2132.2998 2138.022 2132.5599 2129.6988 2131.7796 2129.9589 2125.5372 2123.7165 2101.608 2133.8604 2135.6811 
2293 2005 2128.1382 2137.2417 2123.1963 2131.5195 2131.5195 2132.5599 2129.6988 2127.3579 2129.1786 2116.4337 2125.7973 2100.8277 2136.2013 2135.9412 
2298 2011 2113.5726 2122.416 2107.8504 2115.3933 2127.0978 2128.6584 2130.4791 2122.6761 2122.9362 2138.8023 2106.5499 2077.9389 2112.5322 2123.1963 
2298 2026 2112.2721 2121.8958 2104.209 2113.8327 2130.7392 2128.6584 2129.4387 2117.4741 2117.7342 2122.6761 2107.3302 2079.7596 2115.9135 2121.3756 
2300 2030 2112.012 2116.1736 2102.3883 2107.8504 2126.5776 2127.3579 2122.416 2106.5499 2111.4918 2115.6534 2109.1509 2084.4414 2115.6534 2122.416 
2300 2033 2114.613 2113.3125 2109.411 2103.4287 2124.2367 2129.1786 2121.3756 2112.012 2118.2544 2131.2594 2115.3933 2090.6838 2117.4741 2128.6584 
2304 2032 2119.2948 2118.7746 2113.8327 2109.6711 2130.219 2131.2594 2128.3983 2123.7165 2126.0574 2141.6634 2121.1155 2092.7646 2122.6761 2130.7392 
2305 2034 2120.0751 2122.1559 2108.1105 2115.3933 2130.219 2128.6584 2129.6988 2121.8958 2122.6761 2133.0801 2121.3756 2089.9035 2126.3175 2129.6988 
2307 2042 2119.2948 2122.1559 2109.1509 2115.1332 2122.416 2127.0978 2125.2771 2118.7746 2120.5953 2125.7973 2125.017 2091.9843 2130.7392 2134.9008 
2310 2046 2127.618 2122.6761 2123.7165 2114.8731 2126.5776 2131.2594 2124.2367 2124.7569 2128.1382 2141.6634 2132.5599 2102.6484 2135.421 2143.224 
2312 2048 2136.2013 2123.7165 2131.2594 2113.3125 2136.9816 2134.6407 2126.8377 2131.7796 2136.2013 2153.628 2134.1205 2109.411 2142.7038 2148.426 
2312 2048 2134.3806 2127.3579 2125.2771 2115.1332 2132.0397 2133.3402 2130.4791 2130.219 2134.1205 2141.1432 2134.3806 2108.6307 2146.8654 2150.2467 
2313 2047 2133.6003 2134.9008 2123.4564 2122.6761 2113.0524 2131.2594 2130.9993 2124.7569 2127.8781 2134.9008 2139.0624 2108.6307 2142.1836 2150.2467 
2313 2045 2136.4614 2132.82 2124.2367 2121.1155 2116.6938 2131.5195 2128.3983 2124.4968 2129.1786 2145.825 2139.8427 2107.8504 2137.5018 2145.825 
2313 2038 2130.9993 2117.9943 2119.5549 2107.5903 2141.6634 2133.8604 2129.1786 2125.2771 2129.9589 2143.224 2133.8604 2103.1686 2136.9816 2139.8427 
2314 2032 2127.8781 2115.1332 2118.7746 2105.5095 2145.3048 2136.9816 2132.2998 2122.9362 2123.7165 2130.9993 2133.3402 2102.3883 2138.8023 2141.6634 
2314 2023 2134.9008 2126.0574 2125.2771 2114.613 2131.7796 2136.9816 2129.6988 2121.3756 2120.5953 2135.9412 2140.1028 2108.6307 2143.224 2148.6861 
2315 2020 2133.6003 2124.4968 2123.4564 2114.0928 2126.0574 2132.5599 2123.9766 2119.0347 2123.7165 2151.8073 2139.0624 2109.6711 2140.623 2146.0851 
2314 2020 2122.9362 2112.012 2113.3125 2103.9489 2123.7165 2129.1786 2122.416 2115.9135 2120.8554 2147.3856 2130.4791 2101.8681 2130.7392 2136.7215 
2313 2021 2123.7165 2112.012 2112.012 2098.4868 2113.5726 2129.4387 2127.618 2117.7342 2115.9135 2126.8377 2127.8781 2096.6661 2130.7392 2136.2013 
2313 2025 2130.7392 2118.2544 2115.9135 2101.8681 2113.3125 2131.2594 2132.0397 2123.4564 2122.6761 2131.5195 2131.7796 2100.0474 2137.2417 2139.8427 
2311 2033 2132.0397 2116.1736 2115.6534 2106.81 2130.7392 2134.1205 2131.5195 2128.1382 2132.0397 2154.1482 2135.421 2106.5499 2136.9816 2139.8427 
2312 2036 2133.6003 2116.4337 2116.4337 2104.4691 2136.2013 2136.7215 2133.8604 2129.6988 2132.5599 2158.5699 2138.2821 2109.411 2141.4033 2143.7442 
2313 2038 2137.2417 2120.5953 2121.3756 2100.0474 2125.5372 2138.8023 2138.5422 2131.5195 2131.7796 2148.9462 2141.6634 2109.6711 2149.2063 2147.9058 
2312 2039 2128.9185 2116.1736 2118.7746 2103.9489 2127.618 2137.2417 2136.4614 2129.6988 2128.3983 2143.224 2139.0624 2108.3706 2140.623 2141.6634 
2312 2042 2120.5953 2113.3125 2113.3125 2109.411 2136.4614 2135.1609 2131.7796 2122.416 2122.9362 2141.1432 2134.1205 2105.5095 2130.7392 2135.1609 
2311 2042 2125.5372 2119.0347 2118.5145 2107.5903 2135.6811 2137.2417 2128.1382 2116.9539 2124.2367 2141.6634 2133.3402 2105.7696 2137.5018 2136.9816 
2311 2032 2128.3983 2122.9362 2123.4564 2108.6307 2130.7392 2137.2417 2123.4564 2114.0928 2125.017 2134.9008 2132.82 2107.3302 2140.1028 2139.0624 
2309 2026 2124.4968 2126.3175 2121.3756 2115.6534 2117.214 2132.0397 2123.9766 2116.4337 2121.3756 2128.3983 2129.6988 2106.2898 2132.82 2138.2821 
2306 2014 2122.9362 2125.2771 2118.2544 2113.5726 2113.3125 2129.6988 2127.618 2120.0751 2122.416 2141.6634 2129.4387 2106.2898 2134.1205 2139.3225 
2304 2011 2124.7569 2119.2948 2119.815 2107.0701 2128.1382 2133.0801 2126.8377 2120.3352 2125.2771 2149.2063 2134.6407 2107.8504 2141.6634 2142.7038 
2303 2010 2124.2367 2116.6938 2122.9362 2107.5903 2128.1382 2133.3402 2123.9766 2119.0347 2123.9766 2143.224 2138.2821 2107.5903 2141.4033 2145.5649 
2303 2016 2123.1963 2115.9135 2121.3756 2107.8504 2125.2771 2131.2594 2123.9766 2120.8554 2121.8958 2141.1432 2138.2821 2104.9893 2138.022 2146.3452 
2302 2017 2126.3175 2117.4741 2118.5145 2106.0297 2132.5599 2132.2998 2126.5776 2122.9362 2124.7569 2144.0043 2138.022 2105.5095 2140.3629 2146.0851 
2301 2018 2130.219 2121.6357 2121.1155 2107.5903 2124.7569 2132.82 2127.618 2122.6761 2129.6988 2142.7038 2139.5826 2109.6711 2145.3048 2148.1659 
