# H:M:S.f Gyro(x) Gyro(y) F3 F4 P7 FC6 F7 F8 T7 P8 FC5 AF4 T8 O2 O1 AF3
18:48:20.768000 -19 -3 29 23 -3 -24 22 28 16 -23 30 7 22 -25 
18:48:20.768000 -34 -11 12 11 -14 -30 50 8 -5 -30 14 -1 14 -32 
18:48:20.768000 -39 -15 10 0 -28 -30 71 3 -15 -37 21 4 23 -40 
18:48:20.768000 -33 -13 6 0 -32 -29 54 27 -23 -36 30 5 21 -48 
18:48:20.769000 -31 -10 -3 1 -30 -34 35 31 -19 -39 23 2 3 -48 
18:48:20.769000 -29 -12 9 3 -31 -39 28 5 1 -47 8 -1 2 -48 
18:48:20.769000 -30 -24 13 -10 -33 -48 9 -5 -9 -56 -1 -2 6 -59 
18:48:20.775000 -32 -22 4 -19 -28 -50 -1 11 -26 -57 0 5 3 -60 
18:48:20.786000 -33 -5 6 -4 -28 -40 20 11 -11 -51 6 2 -1 -57 
18:48:20.792000 -30 4 12 5 -30 -32 34 5 0 -42 21 -4 -1 -56 
18:48:20.806000 -10 7 10 13 -15 -27 22 16 -3 -29 30 5 9 -42 
18:48:20.807000 -6 0 5 23 -4 -25 19 15 0 -32 25 5 12 -36 
18:48:20.824000 -30 -18 -4 5 -26 -35 25 -7 -2 -48 12 -28 -4 -47 
18:48:20.824000 -31 -18 -6 -13 -36 -37 21 -13 -8 -41 4 -46 -14 -41 
18:48:20.831000 0 8 16 8 -9 -13 26 2 6 -12 15 -19 4 -11 
18:48:20.843000 8 23 31 34 4 -1 35 8 15 1 33 8 26 -4 
18:48:20.847000 -6 22 13 29 -8 -10 27 1 3 -7 27 2 17 -26 
18:48:20.862000 -8 16 -1 12 -18 -16 3 8 -2 -16 18 -4 1 -34 
18:48:20.862000 1 20 6 18 -14 -9 -3 27 7 -9 32 11 6 -22 
18:48:20.880000 0 21 3 26 -18 -11 15 30 -3 -7 39 20 6 -23 
18:48:20.880000 -3 16 3 16 -22 -16 38 17 -16 -19 29 18 0 -31 
18:48:20.887000 -8 11 18 7 -13 -15 26 24 -12 -21 34 16 10 -30 
18:48:20.899000 -20 5 11 4 -17 -23 -8 38 -18 -19 38 22 15 -33 
18:48:20.901000 -26 -7 -4 -4 -26 -37 -2 22 -28 -33 26 22 3 -38 
18:48:20.917000 -14 -10 1 -7 -17 -39 29 6 -19 -38 24 9 0 -32 
18:48:20.917000 7 7 12 1 5 -33 34 14 -4 -16 30 14 19 -14 
18:48:20.935000 24 25 14 -1 11 -35 16 15 15 -4 27 24 24 4 
18:48:20.935000 26 24 8 0 6 -24 15 3 27 -9 24 17 4 6 
18:48:20.942000 13 21 2 17 12 -5 30 13 12 -4 34 12 -5 8 
18:48:20.954000 6 29 14 32 26 0 21 33 4 7 48 31 11 19 
18:48:20.957000 11 31 35 38 40 17 9 37 26 11 62 46 17 20 
18:48:20.973000 0 18 26 29 25 24 28 23 20 2 63 27 1 3 
18:48:20.973000 -10 10 8 25 6 11 34 6 -3 -3 47 2 -2 -5 
18:48:20.981000 -6 12 17 29 11 10 5 -4 8 -2 34 -3 3 -1 
18:48:20.992000 0 20 33 31 23 22 8 -3 23 0 31 7 3 -1 
18:48:20.997000 4 33 37 35 22 26 40 -1 21 6 36 4 4 7 
18:48:21.011000 -7 29 23 31 9 17 32 -12 14 7 35 -5 2 -3 
18:48:21.012000 -17 11 5 17 0 -1 16 -18 4 -3 22 -7 -4 -28 
18:48:21.029000 2 13 6 14 0 -9 37 -6 2 -1 18 -4 -4 -21 
18:48:21.029000 34 36 23 34 19 21 49 7 24 26 28 14 5 4 
18:48:21.036000 33 39 30 42 27 30 36 1 40 31 30 25 12 7 
18:48:21.048000 12 27 28 29 8 7 26 -7 18 6 21 10 9 -9 
18:48:21.051000 7 24 28 23 -5 4 29 -6 1 -7 21 7 3 -24 
18:48:21.067000 9 20 25 26 2 11 23 -1 17 -1 22 25 10 -27 
18:48:21.068000 18 22 30 30 21 21 4 16 34 1 26 37 29 -9 
18:48:21.085000 20 22 37 27 28 29 7 18 28 2 37 37 28 2 
18:48:21.086000 8 9 32 17 20 20 35 2 25 2 33 27 22 -10 
18:48:21.091000 -1 -6 32 2 12 1 59 1 26 -10 15 10 28 -26 
18:48:21.105000 -16 -24 30 -20 0 -19 57 2 3 -31 0 1 23 -43 
18:48:21.106000 -31 -37 26 -22 -6 -24 44 -5 -13 -40 3 0 18 -48 
18:48:21.123000 -20 -21 35 1 2 -6 30 3 2 -27 17 2 36 -31 
18:48:21.123000 -17 -15 34 -1 -5 -6 22 1 -3 -29 13 -5 33 -42 
18:48:21.130000 -57 -46 2 -39 -36 -39 23 -17 -41 -60 -6 -20 4 -83 
18:48:21.142000 -67 -51 -3 -40 -41 -41 21 -10 -41 -66 -4 -16 13 -80 
18:48:21.147000 -40 -29 21 -15 -26 -16 31 4 -23 -43 12 -2 32 -58 
18:48:21.160000 -37 -31 17 -14 -21 -11 28 0 -30 -32 18 -3 8 -65 
18:48:21.162000 -35 -29 10 -12 -15 -5 -1 4 -15 -30 34 -5 -7 -58 
18:48:21.179000 -19 -8 13 0 -6 5 10 15 -2 -25 38 4 7 -37 
18:48:21.179000 -19 -3 3 -6 -11 -4 55 4 -20 -25 7 0 0 -45 
18:48:21.186000 -14 -6 5 -7 -6 -7 45 -7 -10 -13 7 -4 -11 -46 
18:48:21.199000 -3 -5 19 7 13 9 13 2 17 4 35 6 -7 -21 
18:48:21.201000 -22 -21 4 -9 10 1 39 -7 4 -13 16 -8 -23 -31 
18:48:21.217000 -41 -31 -9 -26 -3 -16 45 -27 -12 -35 -15 -32 -37 -52 
18:48:21.218000 -31 -21 0 -15 -1 -8 0 -26 -4 -29 1 -24 -30 -47 
18:48:21.225000 -28 -22 -4 -20 0 -6 0 -20 -7 -30 6 -7 -30 -48 
18:48:21.236000 -33 -30 -7 -31 -2 -13 29 -17 -5 -35 -7 -5 -27 -57 
18:48:21.240000 -28 -29 -2 -22 -3 -3 31 -6 1 -31 3 -2 -7 -56 
18:48:21.255000 -21 -26 -4 -17 -6 -3 19 -1 -3 -31 5 -2 -3 -50 
18:48:21.256000 -1 -12 4 -7 18 -2 17 0 13 -15 0 0 -3 -33 
18:48:21.274000 11 10 12 7 35 13 43 8 21 8 15 11 4 -18 
18:48:21.274000 -5 4 -3 2 13 11 47 0 -4 3 15 1 1 -29 
18:48:21.280000 -3 -2 -3 7 10 7 7 -4 -4 4 4 -6 -4 -31 
18:48:21.292000 27 21 14 23 34 28 -2 21 28 26 18 19 6 0 
18:48:21.295000 36 36 10 20 36 37 41 22 30 31 25 30 11 8 
18:48:21.313000 29 29 3 12 21 19 44 0 16 24 0 21 12 -7 
18:48:21.313000 34 37 20 13 9 13 9 12 26 29 2 24 21 -4 
18:48:21.321000 35 47 32 13 0 19 14 31 20 32 17 29 20 -2 
18:48:21.331000 32 43 22 15 -1 21 29 21 10 32 12 27 5 -14 
18:48:21.336000 36 41 16 27 1 19 30 26 22 29 12 29 1 -22 
18:48:21.350000 34 37 11 25 1 8 34 33 18 13 19 35 6 -24 
18:48:21.352000 19 28 3 10 -8 -8 34 11 -1 -1 8 27 4 -29 
18:48:21.368000 9 19 2 -1 -25 -18 18 -6 -2 -2 -13 9 5 -35 
18:48:21.368000 0 2 -1 -11 -34 -27 -17 -4 1 -17 -31 -6 -5 -51 
18:48:21.375000 -14 -12 -6 -17 -35 -32 -25 -7 -7 -32 -26 -7 -22 -63 
18:48:21.388000 -14 -3 -7 -8 -34 -18 1 -4 -8 -19 -6 0 -15 -51 
18:48:21.391000 -7 2 -3 4 -25 1 15 8 -4 -5 6 7 -2 -36 
18:48:21.408000 -18 -18 0 -3 -20 -1 -9 5 -3 -19 3 1 -10 -41 
18:48:21.408000 -34 -30 -8 -22 -25 -17 -10 1 -4 -32 -9 -17 -19 -52 
18:48:21.414000 -44 -36 -25 -33 -31 -25 20 -2 -17 -34 -21 -23 -27 -65 
18:48:21.429000 -44 -39 -23 -21 -28 -14 14 -5 -9 -31 -16 -11 -33 -68 
18:48:21.430000 -12 -13 8 9 2 15 7 13 23 -6 11 5 -6 -37 
18:48:21.438000 4 -1 12 5 11 16 23 25 22 0 13 8 11 -22 
18:48:21.451000 -30 -29 -26 -31 -24 -25 16 -2 -10 -36 -19 -7 -17 -57 
18:48:21.454000 -31 -26 -32 -37 -28 -40 -5 -10 -9 -36 -23 -9 -24 -58 
18:48:21.470000 10 5 -3 -18 7 -18 6 20 10 -5 2 11 -1 -19 
18:48:21.470000 1 -13 -8 -24 4 -22 5 16 4 -22 -8 6 -9 -32 
18:48:21.478000 -36 -39 -27 -41 -28 -43 -10 -11 -5 -45 -37 -11 -30 -67 
18:48:21.488000 -22 -16 -15 -27 -21 -23 9 7 3 -20 -20 4 -14 -54 
18:48:21.493000 8 5 -8 -5 3 5 14 37 8 1 7 19 -5 -36 
18:48:21.506000 -6 -6 -28 -1 -10 1 -5 27 5 -5 1 3 -26 -49 
18:48:21.509000 -26 -11 -37 -1 -30 -5 -11 7 -2 -4 -5 -9 -36 -55 
18:48:21.525000 -16 -3 -24 -3 -19 -2 6 3 -3 -3 -7 -10 -28 -42 
18:48:21.525000 0 2 -7 0 2 3 13 3 13 -3 -4 -12 -23 -31 
18:48:21.533000 1 4 0 15 8 18 -11 13 33 3 8 -3 -12 -24 
18:48:21.543000 3 7 -3 19 5 23 -24 27 26 8 16 7 1 -20 
18:48:21.549000 3 6 -6 2 0 4 4 29 4 4 8 8 -4 -23 
18:48:21.562000 -5 1 -5 -4 -6 -1 36 28 0 0 3 7 -10 -27 
18:48:21.564000 -6 4 -7 7 -3 14 20 25 11 7 9 0 -4 -27 
18:48:21.581000 4 3 -4 1 2 10 -2 11 12 14 1 -19 -4 -27 
18:48:21.581000 -3 -14 -9 -23 -2 -10 -2 -3 -4 4 -17 -32 -19 -31 
18:48:21.588000 -21 -20 -22 -33 -9 -18 8 -3 -11 -6 -23 -31 -30 -35 
18:48:21.600000 -19 -8 -21 -30 -11 -22 5 -3 -4 -2 -19 -33 -32 -38 
18:48:21.604000 -4 -2 -3 -31 -2 -28 -31 -2 -1 0 -13 -35 -28 -37 
18:48:21.620000 0 -15 3 -33 -2 -29 -30 5 1 -5 -16 -28 -13 -36 
18:48:21.620000 -9 -20 -6 -33 -21 -28 20 5 4 -5 -28 -22 -6 -38 
18:48:21.627000 -16 -7 -5 -34 -27 -27 26 -3 -6 2 -32 -29 -18 -35 
18:48:21.639000 -26 -6 -3 -34 -18 -33 1 -9 -20 -5 -30 -34 -37 -36 
18:48:21.643000 -21 -7 -4 -34 -5 -32 11 -3 -7 -4 -26 -29 -26 -30 
18:48:21.659000 -10 -1 2 -30 -2 -16 14 4 2 11 -15 -26 -9 -18 
18:48:21.659000 -19 -9 3 -28 -12 -17 3 -2 -22 9 -13 -34 -18 -19 
18:48:21.677000 -18 -18 -2 -33 -14 -32 -5 -7 -25 -5 -26 -33 -18 -20 
18:48:21.677000 -6 -12 -2 -34 -1 -33 -20 -3 -3 -4 -30 -29 -8 -2 
18:48:21.683000 -11 -4 1 -29 4 -23 -4 2 -8 2 -25 -28 -19 4 
18:48:21.696000 -29 -10 -10 -34 -19 -25 19 1 -33 -12 -28 -26 -37 -17 
18:48:21.698000 -28 -15 -11 -36 -18 -27 11 5 -23 -17 -20 -16 -29 -19 
18:48:21.716000 -22 -18 -6 -29 3 -24 -7 8 -6 -13 -6 -13 -19 -8 
18:48:21.716000 -32 -27 -20 -37 -11 -32 -28 1 -28 -29 -19 -26 -30 -25 
18:48:21.722000 -35 -28 -22 -47 -24 -38 -37 -1 -36 -44 -33 -26 -30 -35 
18:48:21.736000 -32 -15 -5 -38 -7 -35 -6 10 -14 -32 -19 -18 -23 -14 
18:48:21.738000 -19 -1 -3 -13 5 -14 5 26 -8 -13 6 -10 -19 3 
18:48:21.755000 -6 1 -8 -3 -4 1 -24 31 -16 -16 18 -5 -15 0 
18:48:21.755000 -8 1 -2 -15 -1 -10 -23 24 -8 -18 13 -7 -12 0 
18:48:21.761000 -8 3 -2 -15 5 -16 -18 15 4 -2 2 -10 -10 1 
18:48:21.774000 -9 -2 -5 -6 -2 -7 -35 8 0 -2 -1 -8 -9 1 
18:48:21.776000 -26 -4 -5 -19 -19 -9 -30 3 -21 -21 -3 -5 -11 -7 
18:48:21.793000 -40 -5 -12 -24 -27 -17 -35 10 -36 -22 -8 -5 -10 -19 
18:48:21.793000 -19 6 -2 0 -1 -1 -44 30 -11 2 8 7 -3 -2 
18:48:21.811000 -20 2 -3 -11 2 -6 11 18 -6 -10 4 -7 -15 0 
18:48:21.811000 -33 -8 -9 -23 -14 -19 4 -5 -23 -25 -21 -23 -26 -13 
18:48:21.816000 2 14 23 9 17 -1 -121 16 19 0 -4 0 3 12 
18:48:21.830000 15 16 26 7 33 -9 -101 24 41 0 9 0 4 15 
18:48:21.831000 -30 -22 -28 -41 -19 -46 79 -8 -22 -37 -27 -35 -36 -32 
18:48:21.849000 -51 -30 -48 -47 -46 -46 84 -17 -56 -47 -40 -41 -45 -51 
18:48:21.849000 -27 2 -12 -12 -14 -26 -51 6 -17 -27 -18 -12 -20 -25 
18:48:21.856000 -10 7 3 -7 7 -31 -32 13 6 -18 -21 -1 -6 -18 
18:48:21.868000 -9 -5 -3 -16 -1 -30 47 9 -8 -22 -29 -4 -8 -31 
18:48:21.872000 -5 10 1 -4 -7 -8 16 19 -14 -17 -10 -3 -6 -33 
18:48:21.887000 -3 26 1 9 -6 0 -8 30 -6 -5 3 1 0 -24 
18:48:21.887000 -4 28 -3 13 -1 0 -7 31 -3 5 0 6 -1 -12 
18:48:21.895000 -4 29 -3 30 4 18 -22 23 -5 4 2 3 -7 -3 
18:48:21.905000 -1 30 2 36 10 33 5 24 2 6 9 6 -9 -6 
18:48:21.911000 -3 28 0 10 9 13 58 26 0 6 6 5 -16 -21 
18:48:21.924000 -12 21 -8 1 0 -12 46 21 -10 -6 -7 -1 -28 -35 
18:48:21.926000 -4 30 -6 22 -1 2 -15 22 -3 0 -6 8 -25 -27 
18:48:21.942000 10 44 -3 38 3 30 -26 26 7 24 13 21 -10 -10 
18:48:21.942000 6 42 -4 36 0 28 23 28 0 29 10 18 -2 -7 
18:48:21.950000 -2 42 -5 33 2 18 53 27 -4 22 -2 17 -3 -10 
18:48:21.961000 3 50 -6 38 8 23 31 32 -2 31 16 31 -1 -12 
18:48:21.966000 -3 45 -1 38 2 34 23 40 3 34 30 32 5 -21 
18:48:21.979000 -28 23 -9 29 -8 23 32 29 -8 7 7 9 3 -40 
18:48:21.982000 -43 7 -25 24 -12 1 20 15 -34 -5 -8 -3 -6 -51 
18:48:21.998000 -39 9 -22 25 -6 2 38 23 -36 10 15 11 -7 -41 
18:48:21.998000 -26 32 0 28 19 30 35 39 6 29 34 31 1 -18 
18:48:22.006000 -7 58 9 45 39 54 6 40 37 41 30 32 5 4 
18:48:22.017000 1 60 3 69 46 55 40 35 31 45 25 26 5 4 
18:48:22.021000 -2 54 1 66 52 55 69 34 26 51 29 30 5 1 
18:48:22.036000 -6 45 -4 39 44 52 35 29 26 44 11 16 -3 -1 
18:48:22.036000 -4 36 -3 29 34 52 -14 29 29 42 0 4 -4 3 
18:48:22.054000 3 39 0 42 45 56 -18 33 33 57 26 20 0 11 
18:48:22.054000 -1 34 -16 31 40 36 26 24 5 49 28 16 -17 1 
18:48:22.061000 -7 24 -22 16 28 25 65 15 -10 34 4 -4 -27 -7 
18:48:22.072000 2 29 -1 28 50 50 48 23 19 50 15 4 -8 8 
18:48:22.077000 9 38 8 38 66 67 9 34 30 67 38 15 2 16 
18:48:22.092000 3 38 -1 42 57 62 5 20 15 63 19 -2 -7 4 
18:48:22.092000 2 46 1 46 61 63 34 10 26 56 -7 -5 -5 5 
18:48:22.100000 4 51 1 32 58 44 38 12 28 37 -9 1 0 0 
18:48:22.111000 20 47 10 22 55 23 -10 13 23 37 -1 -1 -1 -5 
18:48:22.116000 44 45 25 31 79 33 -3 17 45 58 3 6 2 8 
18:48:22.130000 43 44 14 32 90 39 69 15 51 55 -6 10 1 14 
18:48:22.131000 30 34 9 28 79 29 58 4 40 45 -9 2 2 12 
18:48:22.149000 29 28 19 31 82 32 6 -1 42 48 -2 -3 0 18 
18:48:22.149000 33 35 11 34 91 53 29 10 37 48 0 2 -3 24 
18:48:22.155000 31 37 -4 43 76 55 52 8 24 44 -13 -5 -6 18 
18:48:22.168000 29 31 3 29 60 34 21 -5 25 37 -15 -28 -3 6 
18:48:22.170000 30 27 7 -3 62 23 20 -7 27 27 -10 -39 -1 -3 
18:48:22.186000 31 30 3 3 67 28 33 -4 28 29 -15 -24 0 -2 
18:48:22.186000 28 30 2 20 52 24 -4 0 28 32 -13 -6 -2 -4 
18:48:22.204000 28 30 2 18 36 24 -11 8 11 27 -2 -1 -4 -16 
18:48:22.204000 28 34 2 27 40 37 35 13 12 31 0 -1 3 -14 
18:48:22.211000 11 30 0 30 37 33 34 1 23 32 -10 -7 -1 -19 
18:48:22.223000 1 24 0 12 34 31 1 5 23 24 1 -8 -12 -28 
18:48:22.225000 21 29 4 26 53 54 1 29 26 28 28 4 9 -19 
18:48:22.242000 38 37 7 53 54 57 19 32 24 37 29 12 29 -11 
18:48:22.242000 20 33 4 28 34 24 18 20 6 22 4 4 7 -23 
18:48:22.250000 1 21 -2 -3 36 0 10 17 9 7 -10 -3 -9 -39 
18:48:22.260000 17 29 16 17 56 27 10 26 37 26 4 7 19 -29 
18:48:22.266000 36 44 30 41 55 59 6 28 38 44 19 12 28 -7 
18:48:22.280000 23 35 10 34 43 45 2 10 18 37 12 1 6 -8 
18:48:22.280000 15 28 8 23 45 20 9 -3 19 31 -5 -5 -1 -24 
18:48:22.298000 32 42 22 29 50 28 29 5 33 37 -1 5 8 -21 
18:48:22.298000 33 43 11 24 49 34 24 7 33 34 5 4 4 -15 
18:48:22.305000 23 28 10 18 51 24 -3 -7 21 30 -7 -7 -4 -22 
18:48:22.317000 30 32 31 31 60 27 -8 0 32 35 3 0 7 -23 
18:48:22.320000 39 38 24 40 54 33 6 14 58 32 23 11 19 -22 
18:48:22.337000 27 28 3 27 32 22 -1 13 38 16 16 3 12 -45 
18:48:22.337000 10 24 -3 14 22 17 -26 13 -1 7 -1 -3 2 -67 
18:48:22.344000 17 35 5 28 30 25 -37 10 11 21 3 5 3 -56 
18:48:22.356000 30 37 19 38 36 33 -32 7 34 35 14 10 2 -39 
18:48:22.360000 19 24 15 30 35 33 -22 7 17 26 5 5 -2 -49 
18:48:22.375000 0 22 -4 26 25 19 -2 2 4 13 -8 -3 -1 -66 
18:48:22.375000 -4 29 -7 25 5 2 17 -3 4 14 -2 -4 -4 -62 
18:48:22.393000 -3 29 0 24 9 5 10 6 -5 24 0 0 -6 -51 
18:48:22.393000 7 34 6 29 41 30 -24 13 9 35 -5 6 2 -40 
18:48:22.400000 8 34 5 19 36 26 -38 9 16 28 -1 9 2 -47 
18:48:22.412000 -15 7 -9 -10 -2 -7 -10 1 -13 2 -6 3 -9 -74 
18:48:22.414000 -20 2 -3 -10 8 -2 -1 -6 -9 3 -19 -4 -8 -77 
18:48:22.431000 3 30 23 24 52 33 -13 9 35 34 -5 3 7 -55 
18:48:22.432000 4 33 21 28 55 33 2 29 29 35 9 9 5 -51 
18:48:22.439000 -10 9 3 5 41 19 10 14 0 19 4 0 -4 -61 
18:48:22.450000 -4 2 0 7 46 29 -3 0 9 24 10 -9 -4 -62 
18:48:22.454000 0 12 3 19 58 31 -7 16 30 28 23 -4 -12 -54 
18:48:22.469000 5 30 11 29 78 32 3 18 43 33 26 0 -21 -35 
18:48:22.470000 25 45 24 45 86 47 2 -2 53 40 27 -3 -15 -23 
18:48:22.478000 36 41 30 47 80 47 6 -1 60 38 32 -4 -4 -26 
18:48:22.489000 26 37 25 26 86 31 20 4 59 37 32 -12 -12 -22 
18:48:22.494000 31 49 21 27 94 33 12 -3 58 47 28 -16 -19 -7 
18:48:22.508000 55 64 32 55 92 48 10 9 67 58 34 -3 -3 1 
18:48:22.509000 65 68 39 62 95 43 33 30 86 60 37 4 8 4 
18:48:22.527000 59 67 30 46 97 28 25 30 84 61 32 -2 3 6 
18:48:22.527000 58 64 28 35 92 15 -16 26 65 58 33 2 4 5 
18:48:22.533000 55 56 36 28 96 5 -5 29 63 46 27 8 8 1 
18:48:22.546000 45 54 27 24 95 1 37 24 67 33 9 2 1 0 
18:48:22.548000 43 52 17 21 92 -7 18 17 68 30 7 -1 -5 -5 
18:48:22.565000 60 65 31 33 111 8 1 27 81 49 28 18 7 -1 
18:48:22.565000 80 87 42 51 122 34 26 33 96 61 43 35 17 9 
18:48:22.573000 76 75 31 43 100 13 33 13 84 41 25 15 4 -3 
18:48:22.584000 62 57 23 19 78 -25 22 -12 59 27 -2 -8 1 -21 
18:48:22.588000 75 75 38 23 85 -14 25 -6 54 49 9 13 27 -11 
18:48:22.603000 102 101 63 55 96 17 5 20 79 66 40 42 39 13 
18:48:22.603000 96 93 59 61 94 21 -12 33 90 50 41 41 33 9 
18:48:22.621000 64 70 32 38 86 4 13 31 66 28 30 30 30 -16 
18:48:22.622000 51 51 23 21 68 -24 16 28 51 9 24 31 19 -33 
18:48:22.627000 60 51 35 26 64 -24 -9 34 59 5 22 33 18 -30 
18:48:22.640000 57 59 31 24 78 -9 -18 28 63 13 29 17 27 -22 
18:48:22.643000 36 45 18 4 70 -22 -44 12 56 7 23 -5 13 -28 
18:48:22.659000 25 33 16 6 56 -30 -47 14 45 0 12 -4 -1 -33 
18:48:22.659000 14 29 13 15 61 -22 4 17 38 0 13 6 7 -31 
18:48:22.677000 -6 9 2 -11 65 -30 10 1 41 -18 5 -8 6 -35 
18:48:22.677000 -10 -7 -5 -30 61 -46 -38 -7 46 -33 -13 -17 -5 -44 
18:48:22.682000 -1 1 5 -14 60 -41 -43 2 38 -26 -14 -4 -3 -44 
18:48:22.696000 3 9 21 -15 65 -34 -20 3 41 -21 -5 3 6 -35 
18:48:22.698000 -5 3 19 -26 72 -37 -26 -2 48 -31 -1 -3 4 -34 
18:48:22.715000 -8 -3 10 -11 72 -30 -37 11 37 -28 5 1 0 -33 
18:48:22.715000 -3 -2 9 -11 63 -34 -31 24 28 -25 3 6 1 -30 
18:48:22.723000 -8 -7 7 -31 69 -55 -20 25 35 -36 4 5 3 -38 
18:48:22.734000 -22 -24 1 -32 73 -66 -7 22 35 -42 6 4 2 -54 
18:48:22.737000 -28 -29 -2 -28 56 -55 -2 21 22 -41 -2 -7 -5 -62 
18:48:22.751000 -11 -4 8 -13 60 -32 -9 31 27 -27 17 8 2 -47 
18:48:22.753000 0 5 13 1 74 -21 -29 42 40 -24 43 27 7 -31 
18:48:22.770000 -23 -22 -7 -32 48 -51 -44 16 21 -51 9 -6 -17 -53 
18:48:22.771000 -32 -27 -18 -50 32 -72 -20 -6 11 -58 -20 -26 -22 -71 
18:48:22.777000 -6 -2 0 -25 54 -49 5 23 27 -33 19 -1 6 -53 
18:48:22.788000 3 5 5 -19 60 -47 -26 36 30 -26 39 6 11 -45 
18:48:22.793000 -11 -4 -8 -21 42 -63 -58 16 20 -34 9 -7 -4 -55 
18:48:22.808000 -6 0 -8 -8 37 -45 -36 14 20 -27 1 -10 -5 -52 
18:48:22.809000 -8 3 -4 -24 31 -60 -22 12 14 -45 7 -11 -3 -64 
18:48:22.826000 -19 2 -3 -46 7 -102 -32 -3 3 -71 -8 -15 -4 -85 
18:48:22.826000 -17 8 -7 -25 -1 -76 -23 -2 2 -54 -8 -19 0 -72 
18:48:22.833000 -10 17 -17 2 8 -23 -13 6 -3 -24 12 -22 -8 -52 
18:48:22.845000 -5 24 -10 11 19 -20 -28 10 -4 -24 13 -4 -20 -54 
18:48:22.849000 -5 23 0 -6 22 -39 -37 13 10 -37 4 -2 -18 -54 
18:48:22.864000 -7 21 -1 -11 25 -28 -29 20 24 -23 22 -10 -1 -38 
18:48:22.865000 6 33 5 21 36 -2 -27 35 27 4 44 18 12 -24 
18:48:22.872000 12 38 7 21 36 -7 -15 35 20 -2 29 27 7 -27 
18:48:22.883000 5 34 4 -2 28 -20 1 22 18 -15 13 8 -2 -27 
18:48:22.888000 12 31 9 7 38 -9 2 27 31 -2 24 16 -1 -17 
18:48:22.902000 16 28 10 16 57 0 -2 39 39 5 37 25 0 -16 
18:48:22.904000 -3 16 1 -7 48 -19 -29 28 28 -17 27 3 -15 -31 
18:48:22.921000 -10 7 -3 -10 38 -24 -40 7 20 -24 13 -15 -23 -34 
18:48:22.922000 11 19 0 8 58 -2 8 8 33 -2 26 -2 -12 -12 
18:48:22.928000 10 22 -5 3 70 1 40 13 39 5 32 0 -16 1 
18:48:22.940000 -5 13 -5 7 69 -5 21 12 41 0 24 -12 -22 1 
18:48:22.943000 15 24 20 30 89 13 15 25 61 21 43 -5 0 24 
18:48:22.959000 29 36 30 35 102 35 14 36 67 33 61 6 11 37 
18:48:22.960000 8 23 17 21 88 29 12 26 55 15 49 -3 1 14 
18:48:22.967000 4 21 21 23 82 25 26 25 55 17 54 8 13 11 
18:48:22.979000 33 42 40 38 99 42 21 45 70 32 78 36 41 34 
18:48:22.983000 27 33 33 34 93 25 18 38 61 12 65 23 30 19 
18:48:22.998000 9 19 24 23 66 1 25 27 43 -4 49 9 7 -1 
18:48:22.998000 17 32 26 17 59 11 5 36 38 12 56 32 11 7 
18:48:23.006000 11 31 12 8 56 6 10 32 24 2 40 28 15 0 
18:48:23.018000 0 20 3 6 41 -8 49 23 22 -17 23 16 9 -10 
18:48:23.022000 -5 19 -4 2 24 -15 33 32 24 -24 24 25 -2 -15 
18:48:23.036000 -14 24 -4 -5 22 -27 0 34 10 -27 27 28 1 -23 
18:48:23.038000 -11 28 8 5 43 -20 6 28 10 -18 31 27 18 -11 
18:48:23.055000 7 30 13 10 62 -2 10 27 41 -14 34 33 21 1 
18:48:23.055000 18 32 9 -2 57 -9 11 26 56 -20 26 25 5 -3 
18:48:23.062000 26 46 20 12 63 -12 25 25 52 -8 26 16 1 11 
18:48:23.074000 41 63 32 36 96 9 34 30 65 25 44 24 10 40 
18:48:23.077000 32 55 14 22 101 5 29 27 67 34 39 26 4 36 
18:48:23.093000 27 47 7 11 85 -2 29 26 58 28 26 26 6 29 
18:48:23.093000 38 58 24 28 86 10 28 33 55 31 36 31 13 40 
18:48:23.101000 38 63 26 33 79 9 13 18 57 31 38 23 7 38 
18:48:23.111000 33 55 9 26 67 -3 -6 0 53 25 15 10 1 32 
18:48:23.117000 25 39 0 12 63 -21 -12 6 36 5 9 15 -2 22 
18:48:23.129000 15 22 6 -13 53 -30 17 18 36 -13 27 20 3 2 
18:48:23.133000 -10 4 4 -26 32 -34 22 -6 29 -26 15 -10 -2 -22 
18:48:23.148000 -35 -12 -4 -27 19 -52 0 -36 0 -39 -9 -40 -20 -44 
18:48:23.148000 -30 -17 -8 -29 23 -58 7 -17 -3 -45 6 -26 -20 -54 
18:48:23.156000 -13 -7 1 -21 44 -37 10 12 29 -40 33 -1 -3 -44 
18:48:23.167000 -14 3 10 -4 61 -21 -2 4 41 -25 33 5 7 -26 
18:48:23.172000 -35 -6 -5 -4 51 -27 8 -9 23 -26 26 -5 -6 -36 
18:48:23.186000 -56 -30 -18 -30 35 -39 16 -6 16 -53 8 -23 -23 -60 
18:48:23.188000 -54 -41 -4 -35 50 -37 -2 -5 22 -58 -8 -22 -20 -52 
18:48:23.204000 -31 -27 3 -9 81 -27 4 -2 37 -35 11 -1 -1 -26 
18:48:23.205000 -20 -12 -4 -1 81 -24 3 0 42 -31 26 13 0 -24 
18:48:23.211000 -28 -8 -4 -12 63 -31 -33 -6 34 -43 3 6 -9 -37 
18:48:23.224000 -28 -2 4 -10 76 -27 -38 -7 41 -36 -8 4 -10 -36 
18:48:23.227000 -21 0 -2 -5 95 -23 -31 -16 52 -31 1 4 -20 -28 
18:48:23.243000 -12 4 -8 -4 90 -28 -35 -35 55 -28 -10 -1 -25 -22 
18:48:23.243000 10 23 12 16 107 2 -19 -25 76 -3 -9 11 -4 5 
18:48:23.251000 18 38 25 39 138 30 -13 0 96 7 17 32 1 22 
18:48:23.261000 8 24 8 28 126 15 -24 3 78 -1 17 27 -16 11 
18:48:23.267000 2 6 -4 5 100 -1 -12 -5 57 1 0 13 -18 0 
18:48:23.280000 -10 -2 -8 -14 90 -12 -16 -13 51 -14 -5 16 -14 -13 
18:48:23.282000 -15 -3 -13 -13 88 -23 -38 -11 47 -26 -2 30 -8 -21 
18:48:23.298000 3 5 -4 5 91 -8 -11 4 47 -1 5 37 3 -16 
18:48:23.298000 1 6 -3 -1 79 -1 5 9 38 3 1 21 -10 -24 
18:48:23.306000 -23 -5 -22 -23 72 -26 -30 -7 32 -27 -4 0 -32 -43 
18:48:23.316000 -26 -13 -14 -15 82 -31 -37 -19 41 -30 1 -3 -31 -50 
18:48:23.322000 -27 -20 -1 -17 69 -28 -30 -16 30 -28 -7 1 -28 -62 
18:48:23.335000 -29 -19 -7 -38 62 -41 -38 -7 33 -38 -18 1 -32 -62 
18:48:23.337000 -6 -6 1 -16 85 -20 -25 -3 69 -23 3 12 -21 -31 
18:48:23.353000 -4 -7 -2 5 72 -17 -4 2 48 -21 9 29 -11 -42 
18:48:23.353000 -49 -38 -28 -40 29 -69 11 -7 -3 -69 -29 18 -23 -92 
18:48:23.372000 -58 -34 -24 -54 47 -64 27 -26 18 -72 -32 -1 -33 -83 
18:48:23.372000 -11 10 4 4 95 6 39 -14 64 -12 22 8 -24 -25 
18:48:23.377000 2 21 5 13 89 9 42 5 50 1 39 18 -19 -22 
18:48:23.391000 -37 -10 -10 -32 52 -40 22 -14 20 -37 -7 -1 -32 -63 
18:48:23.393000 -32 -3 -2 -24 49 -38 5 -15 27 -34 -15 4 -25 -59 
18:48:23.409000 4 26 12 9 62 -15 9 18 41 -10 30 41 -2 -33 
18:48:23.409000 -15 9 -5 -17 45 -27 3 13 26 -28 25 31 -13 -48 
18:48:23.416000 -38 -10 -19 -43 24 -41 4 -11 -1 -48 -12 -2 -37 -72 
18:48:23.427000 -19 -4 -7 -26 27 -33 37 -4 -2 -42 -7 2 -32 -62 
18:48:23.432000 -15 -12 0 -25 30 -32 46 2 13 -44 6 9 -15 -56 
18:48:23.446000 -15 -19 0 -38 30 -35 17 -3 28 -54 1 3 -9 -63 
18:48:23.447000 4 -1 6 -30 40 -28 19 -1 34 -47 1 1 -17 -58 
18:48:23.464000 -3 -5 -2 -23 39 -24 47 -9 22 -44 1 -10 -30 -61 
18:48:23.464000 -29 -27 -12 -32 16 -32 47 -22 6 -60 -1 -19 -31 -85 
18:48:23.471000 -31 -22 -4 -34 0 -38 28 -23 -6 -67 3 -19 -18 -101 
18:48:23.483000 -16 -5 -1 -30 8 -37 25 -18 -3 -61 -3 -23 -9 -91 
18:48:23.487000 -5 -3 -2 -31 5 -32 18 -19 15 -54 -9 -20 -5 -82 
18:48:23.502000 -7 -15 0 -32 -6 -35 -7 -27 12 -57 -4 -19 -7 -88 
18:48:23.502000 -3 -14 -2 -16 12 -33 0 -33 6 -56 0 -20 -3 -78 
18:48:23.520000 -4 -2 -1 -8 22 -23 34 -31 16 -55 -2 -13 -3 -72 
18:48:23.520000 -26 -11 -8 -32 -7 -29 21 -22 2 -66 -6 -4 -13 -95 
18:48:23.526000 -21 -10 -6 -23 -2 -15 -23 4 1 -54 9 11 -5 -90 
18:48:23.539000 8 17 10 16 33 15 -5 23 31 -31 31 34 14 -59 
18:48:23.541000 1 27 5 17 28 10 60 17 18 -24 28 37 7 -57 
18:48:23.557000 -20 16 -12 13 9 6 69 9 -6 -18 18 28 -12 -72 
18:48:23.557000 -2 27 -5 36 11 26 31 10 23 -8 26 31 -10 -61 
18:48:23.575000 26 39 7 34 16 21 20 15 35 -13 34 31 0 -49 
18:48:23.575000 26 37 7 28 44 13 35 26 23 -13 35 36 3 -35 
18:48:23.582000 12 37 4 42 72 34 37 19 41 -8 35 32 3 -22 
18:48:23.594000 -12 17 -5 14 46 16 27 -3 31 -36 27 6 -11 -45 
18:48:23.596000 -26 0 -5 -6 21 -10 28 0 2 -53 31 10 -14 -66 
18:48:23.613000 -27 3 1 24 27 4 32 12 8 -44 31 19 -10 -64 
18:48:23.613000 -33 -14 -8 16 10 -2 3 -3 8 -55 8 -4 -27 -79 
18:48:23.621000 -32 -27 -12 -20 -1 -22 -12 -3 0 -71 10 0 -26 -92 
18:48:23.632000 -20 -3 2 -3 23 -8 43 26 15 -59 38 36 2 -72 
18:48:23.637000 -19 7 8 21 25 2 66 41 19 -49 38 39 8 -64 
18:48:23.651000 -32 -19 2 7 12 -12 9 24 5 -56 26 23 -1 -80 
18:48:23.652000 -37 -32 1 -9 24 -23 9 6 9 -61 26 23 4 -84 
18:48:23.671000 -33 -27 -3 -20 22 -25 58 9 9 -66 11 21 3 -87 
18:48:23.671000 -39 -36 -24 -37 -13 -32 44 3 -21 -78 -8 4 -16 -104 
18:48:23.676000 -43 -44 -38 -43 -24 -47 11 -9 -41 -85 -4 -8 -21 -110 
18:48:23.690000 -29 -29 -21 -19 -5 -42 22 6 -21 -71 -5 15 -6 -91 
18:48:23.691000 -5 -2 3 -3 15 -15 34 18 12 -50 -2 33 7 -64 
18:48:23.708000 4 -1 0 -16 23 -5 29 -2 19 -43 13 9 6 -59 
18:48:23.709000 1 -3 -1 -13 19 -14 27 -7 8 -46 18 -7 3 -60 
18:48:23.716000 -10 7 5 5 7 -20 23 8 -3 -52 8 7 3 -62 
18:48:23.727000 -39 -11 -11 -15 -12 -37 26 1 -28 -71 -7 3 -3 -88 
18:48:23.731000 -48 -28 -22 -29 -14 -42 29 -1 -39 -69 2 3 1 -96 
18:48:23.746000 -30 -4 -4 5 1 -10 27 26 -16 -44 26 27 11 -66 
18:48:23.746000 -24 9 3 11 9 3 29 34 3 -44 22 32 3 -57 
18:48:23.764000 -18 -6 -4 -15 16 -9 25 22 6 -51 8 22 -6 -60 
18:48:23.764000 4 0 8 -1 42 -1 30 24 24 -28 24 29 14 -30 
18:48:23.770000 15 14 22 30 56 17 43 38 40 -20 38 44 31 -19 
18:48:23.782000 -5 4 8 6 33 -4 22 30 17 -49 17 30 12 -48 
18:48:23.786000 -27 -10 -8 -29 11 -38 -2 -3 -10 -62 -11 -6 -13 -60 
18:48:23.800000 -11 1 -2 -9 28 -22 23 -14 10 -33 -4 -16 -9 -33 
18:48:23.801000 16 19 7 16 51 8 49 1 36 -12 17 2 3 -8 
18:48:23.819000 14 17 -1 4 48 4 39 1 35 -20 11 0 -3 -12 
18:48:23.819000 5 12 -6 -1 47 1 32 -1 22 -23 -2 -13 -10 -17 
18:48:23.826000 32 31 4 25 66 31 35 22 35 4 27 9 3 10 
18:48:23.838000 36 43 3 34 72 44 34 36 47 17 52 35 7 27 
18:48:23.841000 4 24 -5 23 51 26 36 28 25 -7 38 28 -8 1 
18:48:23.856000 -11 14 -4 17 31 18 33 24 5 -24 23 17 -8 -18 
18:48:23.856000 4 23 1 23 32 24 23 26 18 -13 28 25 -1 -4 
18:48:23.874000 24 42 11 45 50 35 29 34 32 6 49 42 1 8 
18:48:23.874000 33 53 25 51 65 40 56 36 33 12 61 48 15 7 
18:48:23.881000 38 49 33 36 68 39 61 30 52 12 46 39 25 16 
18:48:23.892000 47 42 34 36 71 39 44 35 63 14 37 39 17 25 
18:48:23.896000 41 38 20 45 59 33 29 29 40 10 30 34 -1 12 
18:48:23.911000 27 43 10 31 45 26 29 1 24 5 8 9 -4 0 
18:48:23.912000 34 47 23 29 59 33 49 6 35 11 7 -2 19 5 
18:48:23.930000 31 36 25 33 63 32 56 24 31 7 25 8 25 5 
18:48:23.930000 11 25 17 10 36 17 33 6 12 -10 16 5 7 -5 
18:48:23.936000 14 25 22 6 26 16 25 -11 15 -12 -3 -2 -4 -6 
18:48:23.948000 13 11 16 9 33 11 36 5 16 -14 1 -5 -13 -18 
18:48:23.951000 6 0 4 -6 23 -3 28 9 4 -21 16 -7 -27 -22 
18:48:23.967000 23 20 11 14 27 14 24 9 6 -3 31 1 -13 1 
18:48:23.967000 18 22 10 33 25 22 36 17 5 2 29 5 6 -7 
18:48:23.985000 -5 15 1 9 0 3 34 14 -8 -13 26 6 3 -32 
18:48:23.985000 -6 19 2 -3 -8 3 28 7 -20 -13 27 6 -1 -32 
18:48:23.991000 -19 9 -1 4 -2 7 29 -2 -35 -19 5 -21 -3 -33 
18:48:24.004000 -33 -7 -4 -2 -8 -7 28 -7 -25 -26 -12 -38 -2 -41 
18:48:24.006000 -12 -1 0 -6 -4 -2 30 -1 1 -12 1 -17 2 -33 
18:48:24.023000 -1 13 -1 2 16 18 35 1 -4 -1 1 -3 -3 -17 
18:48:24.023000 -1 24 1 15 28 29 34 0 -3 9 1 -4 -2 2 
18:48:24.030000 4 26 5 10 26 25 34 9 8 9 20 -3 -1 6 
18:48:24.042000 2 17 0 -5 16 16 35 26 4 -7 32 5 -7 -8 
18:48:24.047000 25 31 0 17 25 27 26 32 25 6 31 19 5 8 
18:48:24.062000 52 48 24 40 45 34 22 21 57 32 27 21 28 35 
18:48:24.062000 50 51 41 38 41 34 30 23 51 36 29 26 32 35 
18:48:24.069000 38 44 20 34 25 43 29 36 36 29 36 28 17 26 
18:48:24.081000 27 35 3 26 30 36 28 32 25 18 32 10 7 16 
18:48:24.086000 10 35 11 19 37 25 34 25 7 9 22 6 5 12 
18:48:24.100000 10 45 16 33 37 47 37 36 9 30 34 29 0 27 
18:48:24.100000 19 48 6 46 60 74 49 35 34 56 45 15 -7 46 
18:48:24.118000 16 40 7 44 87 81 61 21 56 55 36 -17 -8 53 
18:48:24.118000 17 36 16 44 90 79 52 21 61 43 31 -13 -10 49 
18:48:24.125000 7 34 10 34 90 67 43 15 46 28 33 -15 -21 34 
18:48:24.138000 -16 29 -3 25 94 60 40 1 24 25 33 -34 -28 25 
18:48:24.140000 -21 21 -3 32 89 66 29 1 23 25 30 -31 -24 22 
18:48:24.156000 -11 18 6 35 89 64 38 7 33 18 25 -25 -23 20 
18:48:24.157000 4 22 12 31 102 60 60 -1 49 20 29 -30 -25 28 
18:48:24.174000 15 27 10 30 94 66 60 -4 58 28 32 -25 -27 32 
18:48:24.175000 33 39 17 45 91 77 55 7 52 37 30 -2 -20 46 
18:48:24.179000 34 45 25 44 112 74 67 12 41 40 33 0 -6 66 
18:48:24.194000 7 32 10 22 101 58 59 -2 25 29 30 -28 -9 52 
18:48:24.195000 -13 26 0 25 72 52 45 -8 15 25 21 -27 -13 26 
18:48:24.212000 5 50 21 54 84 75 57 20 23 45 38 16 3 41 
18:48:24.212000 32 69 32 70 103 98 66 54 35 55 66 41 11 64 
18:48:24.220000 42 58 26 69 94 91 60 50 40 45 66 26 1 58 
18:48:24.231000 51 58 30 74 91 81 55 31 50 52 55 20 -2 56 
18:48:24.235000 64 83 33 75 99 94 53 37 55 66 61 27 2 80 
18:48:24.250000 69 97 28 76 98 107 55 48 45 66 69 17 0 93 
18:48:24.250000 53 80 26 67 95 86 54 25 29 60 48 3 0 85 
18:48:24.268000 33 61 18 38 91 56 34 -6 27 57 19 -6 -2 84 
18:48:24.268000 39 71 19 36 93 59 19 4 40 61 20 -3 -3 91 
18:48:24.274000 60 79 28 69 91 91 29 30 45 71 35 16 3 92 
18:48:24.287000 59 64 25 67 85 107 36 28 41 73 29 26 0 94 
18:48:24.290000 58 65 26 51 107 109 35 15 59 81 20 20 -2 116 
18:48:24.306000 75 96 32 86 129 129 38 36 76 112 38 34 14 142 
18:48:24.306000 71 102 14 106 108 136 34 53 56 116 43 44 15 144 
18:48:24.325000 35 65 -6 56 81 91 24 21 27 73 7 7 -7 117 
18:48:24.325000 28 55 1 42 89 76 15 2 31 60 1 -15 -5 113 
18:48:24.330000 43 71 4 70 83 105 4 22 38 81 33 1 2 124 
18:48:24.344000 27 63 -8 53 41 90 -5 30 19 58 23 6 -18 95 
18:48:24.346000 12 50 -8 39 42 67 -1 25 18 35 7 -1 -20 77 
18:48:24.362000 21 59 -8 58 63 87 -5 23 28 53 20 5 -6 92 
18:48:24.363000 12 59 -19 45 38 84 -22 23 14 48 15 6 -5 78 
18:48:24.371000 -8 33 -26 20 16 55 -31 20 4 23 -1 -4 -4 58 
18:48:24.382000 -5 23 -26 21 25 50 -29 14 11 26 -5 6 1 67 
18:48:24.385000 -5 37 -33 28 22 67 -31 12 0 38 -6 28 -1 63 
18:48:24.400000 -5 58 -32 48 17 82 -32 31 -5 47 4 26 1 63 
18:48:24.401000 17 68 -21 59 31 78 -25 30 20 55 8 5 6 88 
18:48:24.418000 31 61 -19 35 34 55 -32 -1 32 54 -10 -6 4 96 
18:48:24.418000 36 64 -27 43 24 67 -53 10 30 60 -5 7 7 95 
18:48:24.425000 29 70 -28 67 7 84 -50 36 21 60 15 21 7 90 
18:48:24.436000 4 50 -18 36 -11 44 -28 16 2 37 -5 4 -1 61 
18:48:24.441000 -7 30 -14 11 -5 22 -26 -9 -2 18 -25 -22 -2 50 
18:48:24.456000 -1 32 -14 28 -3 36 -35 -2 6 12 -17 -25 2 61 
18:48:24.457000 -8 37 -15 21 -30 22 -34 5 1 3 -22 -22 2 47 
18:48:24.464000 -14 28 -12 4 -37 6 -31 -3 -1 8 -26 -22 -1 34 
18:48:24.476000 3 32 1 28 -14 34 -23 -1 18 31 -8 -7 2 57 
18:48:24.480000 6 38 -4 34 -13 40 -31 2 14 29 -10 -6 3 70 
18:48:24.496000 -12 10 -28 -2 -33 10 -56 -8 -7 3 -42 -34 0 54 
18:48:24.496000 -12 2 -31 -4 -32 18 -54 -11 -6 6 -35 -33 0 52 
18:48:24.513000 -7 26 -24 19 -30 29 -30 9 1 18 -12 -2 6 59 
18:48:24.513000 -10 42 -30 21 -37 14 -31 25 -8 9 -15 10 5 55 
18:48:24.519000 -10 43 -25 23 -25 21 -38 4 -6 15 -19 -10 -5 58 
18:48:24.532000 5 50 -19 36 -14 39 -35 -11 6 38 -14 -18 -7 69 
18:48:24.535000 19 46 -20 34 -30 31 -51 8 3 33 -5 1 -1 65 
18:48:24.551000 18 42 -8 36 -27 31 -51 21 9 27 7 12 3 66 
18:48:24.551000 9 39 -3 36 -6 38 -26 2 20 33 -2 -1 -2 74 
18:48:24.559000 0 17 -13 5 -15 12 -33 -24 8 20 -30 -25 -7 62 
18:48:24.569000 -5 4 -19 -20 -42 -13 -62 -24 -10 -2 -41 -38 -17 46 
18:48:24.575000 -17 9 -23 -10 -39 -12 -63 -10 -11 -5 -33 -31 -29 44 
18:48:24.589000 -19 14 -16 16 -14 7 -48 -1 -2 5 -16 -23 -16 50 
18:48:24.590000 -6 10 -6 22 -9 28 -55 -4 4 14 2 -28 6 55 
18:48:24.607000 -10 -7 -13 8 -17 30 -71 -24 1 14 0 -36 -2 58 
18:48:24.607000 -10 -12 -11 11 1 30 -71 -34 7 16 -4 -41 -12 72 
18:48:24.614000 19 16 9 39 36 57 -54 -14 36 40 8 -30 14 102 
18:48:24.626000 28 41 12 54 32 70 -51 -2 34 51 13 -13 26 111 
18:48:24.630000 3 33 -1 32 5 43 -73 -14 3 37 -1 -16 5 94 
18:48:24.645000 4 22 1 17 8 30 -71 -10 4 37 -9 -21 1 92 
18:48:24.646000 17 22 6 26 13 37 -38 -2 28 44 -5 -9 13 85 
18:48:24.653000 3 11 4 20 -1 26 -49 -11 19 22 -5 -6 5 59 
18:48:24.665000 -3 6 0 11 -2 21 -74 2 7 7 -1 -2 0 55 
18:48:24.669000 1 16 0 27 -4 28 -49 22 6 14 -1 8 13 56 
18:48:24.683000 0 26 0 35 -22 24 -27 14 -1 13 -1 10 8 44 
18:48:24.685000 18 34 0 27 -15 26 -34 5 3 28 11 11 -1 51 
18:48:24.702000 26 36 2 28 -12 33 -41 2 7 46 11 8 1 63 
18:48:24.702000 13 38 1 34 -32 26 -55 4 -2 28 7 3 1 49 
18:48:24.708000 25 56 5 44 -17 29 -60 24 9 23 30 23 13 54 
18:48:24.721000 43 72 12 58 12 42 -29 44 34 42 45 57 33 71 
18:48:24.724000 33 63 1 57 -12 34 -24 37 31 29 28 60 32 48 
18:48:24.740000 36 58 -1 51 -34 29 -49 30 21 14 27 52 24 32 
18:48:24.740000 69 75 21 64 -14 43 -47 40 36 41 45 65 36 55 
18:48:24.757000 76 73 22 58 -19 39 -44 36 30 43 37 58 39 49 
18:48:24.757000 49 54 0 36 -42 23 -48 26 4 16 25 41 30 19 
18:48:24.764000 32 53 4 38 -44 25 -35 25 8 27 29 42 29 33 
18:48:24.777000 38 63 18 47 -38 35 -36 36 23 50 39 45 32 56 
18:48:24.779000 36 53 11 37 -30 33 -49 30 11 24 33 30 29 22 
18:48:24.795000 23 32 -3 18 -28 15 -39 4 -6 -8 2 23 29 10 
18:48:24.796000 20 27 2 17 -14 20 -25 1 -1 6 -8 19 31 51 
18:48:24.803000 25 41 21 25 74 79 -33 27 14 37 22 19 35 73 
18:48:24.815000 33 59 23 32 211 148 -34 42 31 70 33 52 38 129 
18:48:24.819000 51 76 0 47 324 206 -34 23 48 131 3 51 28 286 
18:48:24.834000 78 96 -7 68 473 285 -49 0 67 213 -7 1 17 455 
18:48:24.834000 95 101 17 79 657 354 -58 -5 97 262 -1 -13 24 544 
18:48:24.842000 95 93 30 76 740 405 -61 -5 116 284 -9 -1 23 586 
18:48:24.854000 106 113 27 105 744 500 -63 -1 120 346 11 -1 3 641 
18:48:24.858000 125 138 27 129 756 571 -64 7 127 406 34 5 5 666 
18:48:24.873000 115 126 22 98 748 545 -67 -2 116 394 3 0 21 612 
18:48:24.873000 117 135 26 102 730 533 -66 -12 113 400 -8 -10 22 593 
18:48:24.891000 149 166 37 144 722 560 -60 12 139 446 24 22 17 652 
18:48:24.892000 167 180 36 125 699 516 -57 32 111 383 36 43 12 597 
18:48:24.898000 169 193 31 95 644 433 -54 11 48 288 30 13 3 476 
18:48:24.912000 145 167 21 114 578 413 -71 -6 77 329 23 -18 -8 536 
18:48:24.912000 95 105 1 109 500 420 -87 2 141 376 13 -21 -7 636 
18:48:24.930000 80 93 9 85 380 384 -66 6 114 302 24 -8 9 550 
18:48:24.930000 97 123 34 99 256 324 -47 4 65 224 39 2 17 457 
18:48:24.937000 92 114 22 94 143 285 -62 8 13 197 20 3 2 443 
18:48:24.949000 76 95 10 61 77 259 -61 21 -19 197 15 14 -6 420 
18:48:24.953000 64 90 20 61 89 222 -47 22 49 213 32 26 4 429 
18:48:24.967000 43 76 14 64 110 177 -57 7 112 208 23 11 7 467 
18:48:24.968000 33 55 0 34 62 133 -67 -5 60 179 -3 -9 1 439 
18:48:24.985000 29 43 -1 13 6 96 -69 -8 14 170 -11 -9 -5 389 
18:48:24.985000 29 51 3 31 23 86 -78 -2 34 186 3 -1 0 387 
18:48:24.992000 32 60 6 35 32 89 -97 6 29 186 8 5 10 393 
18:48:25.004000 13 41 0 4 -1 59 -101 1 0 144 -9 4 1 374 
18:48:25.008000 -1 27 -2 -6 -6 32 -76 -1 -1 105 -13 -4 -7 356 
18:48:25.023000 8 27 -4 6 3 36 -61 -2 6 86 -3 -21 -3 338 
18:48:25.023000 -10 6 -21 -9 -18 20 -66 -23 -13 4 -17 -32 -6 315 
18:48:25.041000 -40 -5 -24 -20 -45 -10 -73 -25 -41 -101 -28 -17 -6 294 
18:48:25.041000 -22 19 -2 3 -35 0 -80 21 -21 -109 0 9 3 291 
18:48:25.047000 4 27 3 15 -26 13 -86 38 10 -83 17 11 -1 287 
18:48:25.060000 -11 10 -10 -3 -40 1 -68 9 -3 -108 -2 -3 -8 278 
18:48:25.062000 -29 -3 -14 -13 -56 -12 -51 -4 -28 -129 -18 -17 -2 269 
18:48:25.078000 -44 -23 -22 -29 -80 -35 -74 -11 -40 -132 -32 -27 -7 237 
18:48:25.079000 -65 -42 -38 -62 -118 -66 -98 -35 -69 -163 -52 -39 -19 178 
18:48:25.096000 -68 -38 -37 -64 -123 -74 -84 -37 -86 -181 -51 -44 -9 158 
18:48:25.096000 -60 -24 -31 -45 -96 -63 -62 -10 -62 -150 -33 -25 3 183 
18:48:25.103000 -49 -21 -31 -30 -100 -42 -65 7 -43 -129 -14 -2 2 191 
18:48:25.114000 -34 -23 -31 -15 -106 -31 -71 3 -39 -141 -2 -13 0 182 
18:48:25.117000 -27 -16 -25 -14 -69 -34 -64 0 -24 -143 -1 -30 2 188 
18:48:25.133000 -30 1 -22 -16 -51 -36 -64 1 -13 -132 -2 -26 5 178 
18:48:25.133000 -34 2 -29 -11 -71 -37 -60 -4 -27 -128 0 -26 -6 143 
18:48:25.150000 -42 -7 -33 -9 -72 -38 -53 -9 -33 -131 -3 -20 -28 142 
18:48:25.151000 -36 5 -22 -13 -61 -35 -66 1 -13 -132 -7 -2 -24 161 
18:48:25.158000 -14 21 -9 -2 -57 -28 -59 7 -3 -122 -1 3 2 155 
18:48:25.170000 -15 12 -16 9 -64 -27 -24 4 -24 -115 -1 -3 0 129 
18:48:25.172000 -31 0 -30 -7 -84 -38 -21 -1 -40 -130 -8 -14 -26 111 
18:48:25.189000 -28 3 -26 -16 -92 -50 -40 -5 -33 -148 -6 -26 -24 119 
18:48:25.190000 -25 2 -23 -5 -85 -56 -46 -9 -35 -151 -3 -34 -14 117 
18:48:25.197000 -39 -2 -32 4 -96 -46 -49 -11 -43 -144 -7 -38 -23 93 
18:48:25.209000 -44 6 -25 -2 -104 -39 -53 -5 -38 -134 -5 -30 -20 83 
18:48:25.213000 -29 13 -7 -1 -90 -45 -50 4 -29 -133 5 -11 3 95 
18:48:25.228000 -27 6 -11 2 -97 -59 -53 4 -40 -149 5 -1 8 88 
18:48:25.228000 -50 -2 -34 -15 -124 -65 -55 0 -63 -159 -8 -8 -14 60 
18:48:25.246000 -49 15 -26 1 -110 -45 -46 12 -54 -140 7 0 -11 63 
18:48:25.246000 -15 43 2 31 -78 -20 -39 37 -23 -121 41 26 8 75 
18:48:25.252000 -11 41 2 13 -87 -34 -29 40 -20 -141 31 34 8 63 
18:48:25.265000 -28 26 -9 -6 -89 -54 -22 15 -18 -155 -3 6 -2 62 
18:48:25.267000 -26 23 -6 5 -64 -43 -24 -11 1 -144 -5 -29 -6 71 
18:48:25.284000 -23 13 -5 7 -67 -37 -18 -12 -3 -140 4 -29 -3 57 
18:48:25.284000 -37 3 -16 1 -89 -43 -16 11 -22 -143 7 -5 -4 34 
18:48:25.292000 -41 12 -18 12 -88 -28 -26 34 -34 -136 25 9 -3 31 
18:48:25.302000 -54 9 -24 8 -92 -28 -29 25 -49 -148 28 -2 -9 15 
18:48:25.307000 -66 -3 -29 -5 -110 -55 -22 13 -41 -161 9 -6 -12 -4 
18:48:25.321000 -43 4 -24 2 -106 -56 -25 23 -14 -148 3 11 -1 12 
18:48:25.322000 -32 4 -25 -2 -92 -43 -30 20 -17 -148 3 -2 -10 23 
18:48:25.340000 -55 -14 -25 -22 -95 -55 -28 -11 -38 -158 -7 -36 -25 1 
18:48:25.340000 -55 -15 -12 -29 -97 -68 -27 -16 -33 -143 -9 -28 -10 1 
18:48:25.347000 -22 10 0 -10 -81 -54 -16 12 -13 -119 5 2 9 35 
18:48:25.360000 -26 15 -11 -7 -86 -46 -14 3 -20 -124 -3 -24 -8 23 
18:48:25.362000 -53 3 -26 -24 -117 -63 -30 -35 -50 -138 -36 -61 -23 -22 
18:48:25.379000 -42 7 -27 -23 -126 -71 -33 -32 -57 -130 -33 -46 -16 -30 
18:48:25.379000 -25 12 -21 -15 -118 -58 -27 2 -46 -123 -6 -22 -17 -17 
18:48:25.386000 -32 -4 -24 -27 -124 -66 -30 -1 -61 -142 -15 -25 -25 -30 
18:48:25.398000 -40 -16 -30 -46 -134 -95 -36 -33 -80 -157 -37 -38 -27 -61 
18:48:25.401000 -36 -9 -22 -38 -126 -87 -40 -29 -54 -134 -27 -30 -18 -62 
18:48:25.416000 -24 6 -5 1 -97 -48 -27 20 -11 -95 11 21 4 -16 
18:48:25.417000 -10 23 1 18 -69 -37 0 39 4 -90 27 47 10 7 
18:48:25.435000 -4 33 -6 5 -62 -45 9 0 -1 -98 7 -7 -11 -17 
18:48:25.435000 -2 30 -5 9 -66 -33 3 -20 -6 -84 2 -40 -15 -20 
18:48:25.441000 -1 25 8 27 -52 -19 8 9 2 -77 23 -7 11 -1 
18:48:25.453000 -22 13 4 9 -56 -29 8 14 1 -103 5 -6 4 -19 
18:48:25.456000 -44 -4 -15 -16 -89 -50 -9 -22 -28 -125 -28 -42 -27 -56 
18:48:25.473000 -26 8 -14 4 -89 -43 -17 -20 -34 -106 -10 -36 -17 -48 
18:48:25.473000 -9 26 5 22 -68 -24 -14 0 -7 -89 14 -19 -2 -31 
18:48:25.480000 -26 12 -7 2 -88 -45 -22 -19 -12 -109 -7 -36 -24 -53 
18:48:25.492000 -35 -1 -19 -15 -105 -71 -37 -28 -40 -120 -17 -41 -29 -72 
18:48:25.497000 -24 16 0 0 -78 -51 -31 -1 -25 -97 -3 -18 -2 -57 
18:48:25.511000 -22 22 8 17 -64 -29 -17 11 -2 -93 7 -7 4 -42 
18:48:25.512000 -16 15 3 22 -67 -31 -16 3 3 -92 16 -1 4 -35 
18:48:25.530000 -4 15 5 16 -63 -29 -24 7 10 -76 20 -1 7 -28 
18:48:25.530000 -20 -3 -1 -6 -77 -40 -35 -12 0 -92 1 -36 -16 -52 
18:48:25.536000 -39 -20 -19 -17 -100 -63 -37 -40 -28 -121 -14 -61 -32 -79 
18:48:25.549000 -30 -2 -23 -10 -95 -62 -30 -27 -34 -114 -2 -38 -24 -66 
18:48:25.551000 -15 9 -13 -23 -70 -60 -26 -4 -15 -104 2 -23 -17 -58 
18:48:25.567000 -10 -3 -6 -36 -62 -69 -29 -3 -6 -105 -7 -32 -15 -67 
18:48:25.567000 -8 5 -3 -16 -67 -54 -31 -6 -5 -85 -4 -21 -8 -54 
18:48:25.574000 -1 28 3 19 -60 -26 -30 5 5 -61 10 -2 -1 -32 
18:48:25.586000 8 33 8 27 -58 -23 -24 11 7 -59 19 6 5 -46 
18:48:25.590000 -2 24 3 11 -93 -38 -29 15 -7 -74 12 11 6 -77 
18:48:25.605000 -17 16 -6 -2 -124 -55 -41 14 -25 -81 0 4 -3 -93 
18:48:25.606000 -8 21 -1 3 -104 -58 -17 11 -24 -59 6 4 1 -84 
18:48:25.615000 -5 19 3 6 -88 -52 2 7 -24 -45 15 9 4 -80 
18:48:25.626000 -37 -14 -11 -15 -118 -65 -23 -2 -45 -68 2 -12 -18 -105 
18:48:25.629000 -65 -32 -23 -28 -137 -77 -31 -4 -61 -86 -9 -24 -27 -131 
18:48:25.645000 -64 -14 -14 -17 -124 -65 -6 5 -65 -73 -2 -3 -11 -127 
18:48:25.645000 -58 -5 -8 -14 -123 -60 5 16 -62 -56 3 7 -12 -120 
18:48:25.663000 -49 -8 -15 -22 -131 -68 -11 21 -45 -50 3 -2 -19 -127 
18:48:25.663000 -30 -3 -12 -23 -127 -64 -24 13 -30 -30 2 -2 -4 -134 
18:48:25.669000 -37 -3 -10 -26 -125 -70 -33 -2 -43 3 -2 1 2 -132 
18:48:25.682000 -57 -8 -14 -33 -124 -79 -32 -4 -55 41 -2 -5 -6 -124 
18:48:25.685000 -50 -3 -6 -20 -118 -64 -17 1 -38 67 0 -9 -4 -121 
18:48:25.701000 -30 5 1 2 -116 -51 4 4 -27 76 3 -5 -10 -125 
18:48:25.701000 -33 5 -7 2 -114 -55 14 6 -36 73 2 -7 -26 -123 
18:48:25.708000 -41 -1 -13 -21 -116 -63 -3 1 -40 64 -16 -25 -37 -129 
18:48:25.719000 -41 -11 -9 -37 -127 -82 -16 -10 -35 51 -26 -34 -39 -148 
18:48:25.724000 -40 -13 -13 -30 -128 -91 -4 -3 -37 46 -4 -25 -32 -152 
18:48:25.738000 -40 -9 -25 -28 -122 -76 -2 2 -40 50 6 -27 -28 -150 
18:48:25.740000 -46 -9 -27 -35 -130 -70 -12 -14 -44 46 -6 -39 -38 -157 
18:48:25.757000 -43 -9 -13 -25 -121 -71 -3 -16 -35 49 -4 -31 -29 -148 
18:48:25.758000 -23 -1 6 -10 -96 -59 -1 -2 -18 65 4 -17 -5 -130 
18:48:25.763000 -17 8 5 -7 -101 -51 -17 3 -19 87 3 -23 -12 -130 
18:48:25.776000 -32 12 -10 -3 -115 -48 -6 -4 -37 120 10 -32 -35 -133 
18:48:25.779000 -33 21 -9 5 -97 -38 6 -5 -31 155 24 -25 -28 -111 
18:48:25.795000 -18 27 0 3 -82 -27 -5 2 -9 168 17 -16 -12 -93 
18:48:25.795000 -14 18 -3 -4 -90 -30 -2 -3 -14 165 1 -20 -14 -98 
18:48:25.803000 -22 5 -3 -9 -97 -42 8 -28 -29 162 -6 -41 -22 -113 
18:48:25.815000 -22 7 2 -5 -93 -47 4 -42 -27 159 3 -55 -24 -123 
18:48:25.820000 -10 19 2 -1 -90 -37 -5 -17 -12 163 11 -42 -13 -114 
18:48:25.833000 3 27 5 -3 -87 -26 -17 0 -2 169 9 -25 -7 -96 
18:48:25.835000 13 41 10 18 -72 -17 -21 -4 0 178 14 -22 -12 -87 
18:48:25.852000 12 48 3 28 -62 -19 -15 0 -7 179 22 -28 -26 -97 
18:48:25.852000 -3 33 -10 -1 -84 -37 -30 1 -18 162 19 -28 -37 -111 
18:48:25.859000 1 31 -6 5 -85 -23 -23 3 -5 172 17 -5 -19 -97 
18:48:25.871000 8 42 4 34 -58 -1 4 11 7 183 14 8 5 -86 
18:48:25.875000 -2 33 4 11 -70 -23 -13 8 -8 161 5 -13 -2 -105 
18:48:25.890000 -7 20 -1 -14 -98 -41 -39 -2 -29 145 6 -24 -12 -119 
18:48:25.891000 -4 28 2 9 -89 -24 -33 7 -31 148 14 -1 -4 -111 
18:48:25.898000 -14 28 -8 10 -97 -28 -28 20 -34 134 4 10 0 -119 
18:48:25.910000 -18 24 -26 -9 -120 -45 -26 16 -39 127 0 2 -6 -130 
18:48:25.914000 -3 34 -19 0 -103 -32 -21 18 -36 140 16 1 -16 -119 
18:48:25.930000 -6 29 -9 4 -89 -29 -28 20 -33 138 16 4 -28 -114 
18:48:25.930000 -18 6 -21 -13 -104 -48 -30 2 -32 128 -16 -13 -29 -124 
18:48:25.947000 -7 10 -20 -14 -104 -40 -25 -11 -28 129 -18 -33 -25 -127 
18:48:25.947000 4 30 0 1 -89 -29 -22 1 -24 128 6 -21 -27 -121 
18:48:25.954000 -7 15 -5 -10 -90 -51 -28 6 -27 119 -10 -7 -34 -124 
18:48:25.966000 -7 -1 -21 -19 -81 -56 -53 -8 -18 120 -25 -21 -33 -120 
18:48:25.969000 -2 7 -11 -9 -60 -28 -71 -7 -11 121 -8 -33 -29 -117 
18:48:25.985000 -24 5 -2 -11 -66 -29 -51 -2 -24 114 -15 -31 -29 -124 
18:48:25.985000 -23 3 -9 -14 -74 -42 -24 -10 -24 121 -31 -27 -23 -118 
18:48:25.993000 19 30 1 11 -50 -21 -26 -6 12 142 -10 -8 -7 -89 
18:48:26.004000 44 60 24 34 -25 3 -31 17 39 148 16 11 2 -74 
18:48:26.009000 35 50 21 26 -30 -1 -21 21 29 135 19 8 2 -87 
18:48:26.024000 22 32 1 14 -36 -11 -27 10 21 123 23 -1 -8 -90 
18:48:26.024000 32 46 8 30 -23 4 -37 23 38 129 33 7 -11 -64 
18:48:26.041000 30 53 12 38 -22 16 -16 28 29 131 19 16 -5 -64 
18:48:26.041000 1 32 -2 14 -35 7 10 2 0 119 0 5 -10 -91 
18:48:26.048000 4 23 5 6 -30 2 9 -5 11 122 15 -7 -15 -83 
18:48:26.060000 24 30 20 23 -27 7 -11 7 32 127 23 -5 -2 -68 
18:48:26.064000 15 27 13 27 -44 12 -22 6 15 117 8 4 8 -89 
18:48:26.079000 -6 21 -3 8 -67 -6 -9 -5 -5 102 -6 -4 -4 -114 
18:48:26.080000 -1 27 -2 -4 -67 -21 14 -4 -3 98 -15 -11 -12 -118 
18:48:26.097000 11 43 9 17 -53 4 13 6 1 110 0 6 -1 -104 
18:48:26.097000 11 51 14 37 -52 26 -8 12 2 122 26 30 8 -86 
18:48:26.103000 0 35 8 16 -63 6 -5 4 -2 107 11 22 3 -100 
18:48:26.116000 -8 24 3 0 -65 -9 12 0 -9 90 -13 4 -6 -119 
18:48:26.119000 9 43 14 38 -42 21 21 20 5 108 13 22 -4 -92 
18:48:26.134000 33 68 25 71 -13 40 24 35 33 127 30 36 2 -61 
18:48:26.135000 54 72 29 57 -1 34 33 35 49 125 13 27 5 -60 
18:48:26.152000 55 66 26 35 -3 22 41 28 43 116 4 25 4 -62 
18:48:26.152000 38 58 27 31 -5 12 28 13 34 111 1 21 1 -52 
18:48:26.159000 24 41 21 23 -17 5 0 4 29 102 -13 0 2 -63 
18:48:26.170000 2 22 -4 8 -36 -7 -9 10 18 82 -23 -12 -5 -96 
18:48:26.174000 -3 33 6 28 -28 16 23 29 25 89 11 21 0 -84 
18:48:26.189000 17 40 25 44 -17 37 51 35 35 101 34 37 13 -59 
18:48:26.190000 20 25 12 16 -26 13 39 20 26 82 3 5 3 -78 
18:48:26.207000 11 33 7 9 -28 3 23 16 28 76 -15 6 -6 -89 
18:48:26.207000 6 48 19 25 -25 21 26 24 29 86 5 31 1 -78 
18:48:26.214000 1 38 18 21 -32 20 37 24 12 80 9 6 -1 -83 
18:48:26.226000 11 38 25 20 -32 10 26 21 13 80 -3 -13 -1 -81 
18:48:26.229000 31 61 44 31 -29 21 20 33 33 97 5 28 29 -61 
18:48:26.244000 33 60 38 30 -34 22 43 33 39 91 8 34 45 -62 
18:48:26.245000 30 44 32 24 -32 8 53 14 27 79 -3 2 18 -73 
18:48:26.262000 25 42 24 20 -32 -1 30 -1 8 82 -7 -3 -11 -78 
18:48:26.263000 14 47 8 15 -45 1 15 -3 6 83 -5 8 -8 -81 
18:48:26.269000 22 55 19 25 -42 12 29 14 16 85 4 18 10 -70 
18:48:26.282000 40 56 35 36 -26 10 45 18 21 87 4 16 18 -55 
18:48:26.284000 24 42 28 21 -32 -1 26 -3 21 73 -27 -2 14 -67 
18:48:26.300000 2 32 25 2 -41 -4 20 -8 21 67 -39 -7 13 -81 
18:48:26.300000 13 37 33 8 -28 5 62 11 25 84 -3 4 20 -66 
18:48:26.318000 22 40 32 14 -28 8 54 11 21 88 3 2 12 -48 
18:48:26.318000 4 29 25 -2 -48 -3 4 -12 3 65 -27 -11 -1 -65 
18:48:26.324000 -12 21 31 0 -51 -10 37 -7 -9 56 -30 -8 16 -83 
18:48:26.337000 -19 11 25 7 -48 -16 97 5 -14 50 -34 -1 23 -85 
18:48:26.340000 -54 -17 -5 -26 -81 -39 55 -18 -42 22 -54 -18 -16 -117 
18:48:26.356000 -58 -20 -7 -37 -85 -38 10 -27 -38 26 -36 -23 -26 -125 
18:48:26.356000 9 27 27 14 -23 10 52 12 22 86 5 13 26 -54 
18:48:26.363000 40 50 43 43 7 32 76 38 48 112 16 43 41 -8 
18:48:26.375000 8 32 21 22 -27 9 43 22 21 80 -7 28 8 -39 
18:48:26.379000 -13 23 4 6 -43 -8 32 6 2 54 -21 1 -8 -69 
18:48:26.393000 1 28 13 21 -26 2 59 19 11 58 6 6 2 -60 
18:48:26.394000 12 38 30 39 -28 16 51 44 18 66 42 38 10 -53 
18:48:26.411000 -1 33 23 25 -57 10 19 40 0 51 15 40 5 -75 
18:48:26.411000 -23 11 0 -2 -86 -18 19 6 -26 29 -32 6 -1 -103 
18:48:26.419000 -31 7 -8 -9 -96 -31 38 2 -39 20 -26 1 -4 -108 
18:48:26.430000 -22 30 1 6 -82 -7 37 27 -33 30 3 30 4 -92 
18:48:26.434000 -13 44 8 23 -67 13 9 34 -14 45 5 46 16 -77 
18:48:26.448000 -3 41 8 36 -60 11 7 25 3 50 3 37 10 -72 
18:48:26.449000 3 35 14 31 -59 8 34 25 2 41 5 21 2 -79 
18:48:26.466000 -2 29 18 12 -70 3 29 26 -4 33 -2 24 16 -89 
18:48:26.466000 -4 33 5 3 -80 -2 15 14 -5 36 6 25 21 -91 
18:48:26.474000 -2 30 0 -4 -74 -13 32 -1 -3 27 13 7 3 -95 
18:48:26.485000 -6 6 8 -14 -62 -28 42 -8 0 15 -24 -11 -7 -97 
18:48:26.488000 -9 -7 6 -10 -59 -31 32 -6 4 16 -41 -8 -1 -91 
18:48:26.506000 -9 10 7 -1 -61 -26 28 -3 1 19 -14 -4 7 -94 
18:48:26.506000 -9 17 21 -1 -66 -31 28 7 0 12 -2 1 14 -97 
18:48:26.513000 -3 9 30 2 -58 -27 48 28 9 17 3 18 15 -91 
18:48:26.527000 -5 9 20 3 -49 -18 58 24 5 25 2 14 7 -94 
18:48:26.529000 -24 7 2 -11 -62 -29 37 -3 -12 14 -16 -8 -2 -100 
18:48:26.547000 -32 -4 -2 -13 -60 -24 38 -9 -8 14 -15 -10 1 -92 
18:48:26.547000 -11 5 14 5 -30 6 64 10 14 36 11 5 8 -79 
18:48:26.552000 5 22 18 10 -31 5 53 13 13 40 4 10 6 -81 
18:48:26.568000 -11 14 1 0 -62 -26 21 -11 -6 17 -30 -4 -1 -91 
18:48:26.568000 -23 -2 -1 -1 -67 -31 31 -24 -9 13 -24 -22 -2 -93 
18:48:26.576000 -17 -3 7 -6 -54 -21 53 -9 0 22 -3 -20 -5 -91 
18:48:26.588000 -15 0 11 -18 -56 -27 40 2 3 19 -17 -1 -7 -90 
18:48:26.592000 -19 0 9 -12 -58 -30 38 -10 0 19 -37 -3 -3 -86 
18:48:26.607000 -17 4 0 0 -47 -21 50 -12 0 25 -16 -15 -6 -85 
18:48:26.607000 -7 12 0 2 -42 -7 35 4 7 33 1 0 -3 -84 
18:48:26.625000 -1 13 3 -6 -41 -11 35 6 7 32 -18 7 5 -77 
18:48:26.625000 5 13 3 -7 -39 -27 61 5 2 29 -22 4 8 -71 
18:48:26.631000 6 20 5 -5 -48 -31 49 11 1 31 -13 17 7 -70 
18:48:26.644000 1 19 -1 -9 -61 -29 19 9 -4 23 -24 17 5 -78 
18:48:26.647000 -6 12 -15 -16 -72 -35 24 -6 -15 9 -38 -4 0 -91 
18:48:26.663000 -5 22 -9 -6 -68 -29 40 0 -5 12 -26 0 -1 -88 
18:48:26.663000 7 39 8 12 -47 -16 44 22 20 22 -4 28 4 -64 
18:48:26.671000 9 33 4 9 -34 -25 28 18 17 15 -1 31 3 -59 
18:48:26.682000 9 28 0 13 -34 -21 17 16 13 22 -4 25 0 -66 
18:48:26.685000 7 43 -4 25 -35 -4 45 25 23 32 2 24 3 -55 
18:48:26.701000 -11 33 -20 12 -46 -18 58 12 10 13 -3 10 2 -58 
18:48:26.701000 -40 -1 -27 -7 -68 -41 21 -4 -13 -7 -25 -1 -1 -89 
18:48:26.719000 -33 -4 -13 -4 -63 -33 9 2 -10 -8 -24 4 5 -97 
18:48:26.719000 -13 10 -12 3 -48 -25 49 -1 2 -6 -20 3 4 -83 
18:48:26.726000 -21 12 -19 -4 -51 -36 53 -9 2 -3 -29 -2 -1 -79 
18:48:26.738000 -19 9 -10 -4 -46 -35 -2 3 3 0 -16 9 14 -76 
18:48:26.741000 -12 4 -6 -3 -44 -34 -4 0 1 -5 -3 6 19 -71 
18:48:26.757000 -24 3 -11 -2 -48 -35 50 -10 -5 -3 -11 -7 4 -72 
18:48:26.757000 -17 15 -11 10 -38 -15 73 -1 -2 16 -6 7 -3 -58 
18:48:26.765000 8 30 -18 20 -22 6 48 9 4 30 8 16 2 -42 
18:48:26.776000 0 22 -27 7 -28 -13 5 1 8 18 3 -1 -3 -50 
18:48:26.780000 -28 10 -28 -5 -38 -37 1 -2 0 1 -8 -9 -9 -65 
18:48:26.795000 -27 20 -26 14 -30 -22 33 17 0 2 -6 4 -2 -60 
18:48:26.796000 -23 20 -28 22 -38 -13 35 20 10 8 2 7 0 -58 
18:48:26.814000 -38 -1 -26 -3 -53 -32 31 -7 -7 -4 -3 -10 -18 -70 
18:48:26.814000 -51 -9 -35 -8 -59 -40 53 -16 -30 -14 -22 -19 -35 -81 
18:48:26.820000 -41 8 -33 20 -56 -28 35 8 -16 -9 -14 -5 -17 -75 
18:48:26.833000 -21 23 -18 30 -36 -17 7 18 8 3 15 12 4 -53 
18:48:26.835000 -28 5 -26 1 -42 -29 16 -3 -4 -12 -3 -11 -20 -65 
18:48:26.851000 -42 -18 -36 -12 -60 -44 6 -14 -16 -34 -35 -35 -43 -87 
18:48:26.851000 -21 2 -16 17 -33 -21 6 5 10 -9 -14 -13 -19 -62 
18:48:26.869000 11 32 9 39 7 7 49 25 41 23 15 13 10 -28 
18:48:26.869000 1 16 0 16 -4 -13 70 10 31 8 -11 -3 -4 -44 
18:48:26.876000 -34 -14 -30 -14 -34 -39 60 -24 -7 -19 -46 -29 -25 -75 
18:48:26.888000 -38 -12 -27 -2 -27 -16 42 -16 -1 -13 -24 -13 -10 -62 
18:48:26.890000 -23 2 -1 29 -12 8 23 22 28 1 13 12 12 -39 
18:48:26.906000 -24 -1 -14 25 -17 0 30 23 8 4 5 13 3 -43 
18:48:26.907000 -23 3 -34 18 -17 4 54 12 -12 10 -10 18 -7 -43 
18:48:26.914000 -3 28 -10 42 0 26 78 26 17 29 6 34 15 -17 
18:48:26.926000 16 45 11 55 18 37 60 40 42 45 9 37 28 4 
18:48:26.929000 14 37 -5 42 17 27 -4 29 34 39 -6 25 16 -1 
18:48:26.945000 21 45 -7 53 23 32 18 27 39 45 18 31 18 4 
18:48:26.945000 38 68 1 76 20 53 111 34 40 68 46 40 26 10 
18:48:26.963000 34 70 -3 66 1 48 80 25 23 58 28 32 20 3 
18:48:26.963000 35 63 -1 57 13 31 8 26 32 38 4 35 29 5 
18:48:26.970000 40 58 4 56 25 29 63 25 50 42 -1 35 29 4 
18:48:26.982000 39 57 1 49 10 31 100 6 41 43 -2 13 5 -2 
18:48:26.985000 36 56 -3 48 1 23 56 -6 34 36 6 8 8 6 
18:48:27.001000 44 63 5 62 23 38 62 19 52 53 23 32 31 23 
18:48:27.001000 56 83 23 77 40 64 72 32 68 77 33 37 36 37 
18:48:27.019000 64 97 31 75 37 63 60 9 65 77 26 24 33 44 
18:48:27.019000 67 93 28 68 35 48 94 -1 60 66 19 29 37 40 
18:48:27.024000 54 79 16 62 29 35 108 2 56 54 19 28 32 29 
18:48:27.038000 53 75 22 69 23 41 62 13 58 50 20 22 29 26 
18:48:27.040000 59 83 31 86 28 63 47 29 56 60 26 34 22 36 
18:48:27.056000 42 86 10 76 30 58 77 25 40 63 31 27 1 37 
18:48:27.056000 26 75 -11 56 19 29 94 22 28 50 29 4 -7 21 
18:48:27.065000 30 77 7 61 18 37 83 39 34 49 28 20 5 18 
18:48:27.076000 38 84 20 67 21 59 63 34 37 54 33 41 8 22 
18:48:27.079000 30 69 3 46 8 40 43 14 30 43 30 17 -4 7 
18:48:27.095000 28 57 -1 38 15 24 34 19 38 41 17 -2 -5 11 
18:48:27.095000 34 54 10 43 33 37 47 20 49 52 9 8 3 30 
18:48:27.113000 22 32 6 25 16 30 70 -3 34 33 0 -1 0 15 
18:48:27.113000 -10 1 -11 0 -10 0 68 -26 10 10 -20 -25 -13 -18 
18:48:27.119000 -26 -11 -18 -10 -10 -10 57 -28 -3 10 -29 -36 -17 -20 
18:48:27.132000 -6 2 -8 0 4 -3 69 -12 6 17 -9 -32 -6 -4 
18:48:27.135000 5 21 3 11 8 2 70 -1 22 19 6 -13 5 2 
18:48:27.150000 2 32 1 11 -3 2 46 -1 31 15 -2 -4 6 -8 
18:48:27.150000 15 28 -6 4 -10 -5 54 1 24 0 -5 -6 5 -21 
18:48:27.168000 29 36 3 11 -1 1 80 8 15 4 1 19 17 -21 
18:48:27.168000 12 38 7 15 -13 3 68 8 4 8 -4 35 19 -29 
18:48:27.175000 -18 6 -4 -11 -40 -23 48 1 -8 -13 -3 8 2 -44 
18:48:27.188000 -14 -2 4 -20 -25 -25 63 -4 8 -11 15 -9 6 -34 
18:48:27.190000 16 30 29 9 16 9 62 6 32 20 23 8 37 -5 
18:48:27.206000 6 26 17 4 5 3 49 8 20 2 8 10 34 -15 
18:48:27.207000 -33 -13 -21 -35 -37 -38 71 -1 -11 -51 -19 -1 4 -63 
18:48:27.213000 -26 -5 -26 -34 -36 -43 88 -9 -15 -57 -38 -2 6 -74 
18:48:27.226000 27 40 1 10 3 -7 69 3 21 -12 -20 8 31 -25 
18:48:27.229000 52 65 12 33 17 20 38 18 43 16 20 19 36 14 
18:48:27.245000 25 54 -6 20 -12 10 17 9 13 4 22 10 18 -10 
18:48:27.246000 4 41 -16 7 -27 0 47 5 -12 -2 -3 8 11 -37 
18:48:27.254000 21 50 -6 17 -9 18 86 25 13 17 -6 28 25 -17 
18:48:27.266000 48 63 8 33 7 34 63 36 38 33 21 43 38 11 
18:48:27.270000 52 63 15 38 12 30 56 37 43 27 34 43 40 7 
18:48:27.284000 37 50 9 28 12 20 75 28 31 12 4 33 27 -18 
18:48:27.285000 20 34 -2 5 -11 1 40 6 5 -7 -28 21 15 -39 
18:48:27.302000 21 45 -2 -5 -25 -8 37 8 6 -11 -1 27 23 -27 
18:48:27.302000 44 67 5 17 -3 6 91 33 31 14 32 41 34 4 
18:48:27.309000 49 67 3 31 4 11 79 29 25 27 11 31 28 8 
18:48:27.322000 26 53 -1 19 -13 0 45 17 6 7 -9 21 21 -9 
18:48:27.325000 22 55 -2 17 -11 0 61 27 18 -6 8 32 19 -9 
18:48:27.341000 39 62 2 25 4 6 73 25 40 9 14 28 9 1 
18:48:27.342000 28 43 5 10 -7 -6 65 3 31 2 -10 3 4 -12 
18:48:27.348000 -4 15 4 -11 -30 -21 62 5 12 -30 -2 3 1 -37 
18:48:27.361000 -8 11 5 -7 -23 -12 58 21 19 -33 23 26 1 -40 
18:48:27.364000 10 26 8 8 -2 0 54 23 31 -12 10 29 16 -24 
18:48:27.380000 12 27 5 4 -1 -7 60 14 21 -14 -6 22 18 -25 
18:48:27.380000 1 28 -1 -2 -8 -12 78 11 13 -18 -9 23 1 -28 
18:48:27.397000 13 50 2 14 4 -1 68 18 28 8 4 28 12 -4 
18:48:27.398000 39 58 8 22 11 5 41 30 37 17 25 31 34 5 
18:48:27.403000 33 40 0 6 -9 -8 68 30 18 -17 16 34 23 -20 
18:48:27.417000 8 25 -8 -13 -31 -27 67 18 0 -30 -6 26 2 -34 
18:48:27.419000 4 24 -3 -25 -40 -37 -7 5 -1 -22 -11 4 0 -33 
18:48:27.436000 13 25 -5 -25 -39 -29 15 -7 -4 -25 -8 -2 9 -38 
18:48:27.436000 24 43 6 14 -21 11 127 20 3 -3 16 35 26 -21 
18:48:27.443000 33 67 23 52 0 44 129 59 24 29 52 69 33 8 
18:48:27.454000 32 63 23 43 2 37 46 46 29 17 42 59 23 5 
18:48:27.459000 37 59 20 33 0 29 35 28 32 4 24 40 28 1 
18:48:27.473000 37 62 11 32 4 35 79 33 34 14 32 35 25 3 
18:48:27.474000 32 63 2 29 18 33 105 31 35 21 28 33 12 5 
18:48:27.491000 49 65 13 42 29 30 102 29 47 25 24 34 19 23 
18:48:27.491000 58 66 19 50 17 34 71 31 49 28 27 36 21 26 
18:48:27.498000 35 62 -1 35 -4 31 53 12 31 23 16 25 2 1 
18:48:27.510000 13 52 -7 25 -3 18 79 -6 16 14 -4 8 -9 -9 
18:48:27.514000 15 52 4 30 2 12 73 -1 18 5 0 12 6 3 
18:48:27.529000 17 54 4 32 0 29 37 5 24 8 13 32 16 2 
18:48:27.530000 5 44 -1 32 1 34 80 8 13 9 4 36 10 -12 
18:48:27.537000 -5 33 -10 11 -7 4 106 1 -7 -8 -13 15 -1 -22 
18:48:27.548000 9 37 -10 -7 -6 -2 39 -9 12 -8 -2 5 -4 -9 
18:48:27.553000 32 45 -2 21 22 31 55 7 46 23 24 27 11 24 
18:48:27.567000 38 49 4 43 44 41 144 32 42 36 29 45 26 37 
18:48:27.569000 35 53 9 30 38 30 123 24 33 22 14 36 27 29 
18:48:27.585000 38 52 18 26 32 27 75 7 43 16 12 27 28 30 
18:48:27.585000 35 48 18 24 29 13 94 7 39 9 12 32 26 23 
18:48:27.593000 21 42 2 2 7 -5 78 1 13 -8 0 27 11 0 
18:48:27.604000 18 32 8 -6 -7 -3 67 -8 8 -11 -11 13 12 -9 
18:48:27.608000 28 30 25 4 5 3 106 -9 28 -4 -16 7 30 -2 
18:48:27.624000 23 34 13 3 3 -5 92 -19 26 -8 -24 4 19 -11 
18:48:27.624000 -4 20 -17 -17 -31 -28 29 -40 -9 -30 -39 -14 -9 -37 
18:48:27.641000 -10 15 -14 -26 -49 -31 12 -36 -17 -36 -50 -23 -3 -40 
18:48:27.641000 17 42 5 4 -33 -3 59 -6 10 -8 -29 -3 23 -24 
18:48:27.648000 23 60 2 34 -28 14 101 9 13 10 8 10 32 -12 
18:48:27.660000 3 52 -3 20 -37 2 96 2 -2 -4 10 5 23 -11 
18:48:27.664000 -1 38 -5 0 -34 -8 44 -2 -5 -14 -8 5 13 -16 
18:48:27.679000 4 31 -10 -1 -38 -16 -10 -1 -4 -13 -7 4 4 -25 
18:48:27.680000 -1 28 -11 -4 -45 -33 23 -4 -10 -22 -6 2 3 -24 
18:48:27.687000 12 40 4 8 -32 -18 102 8 4 -17 -4 22 23 -8 
18:48:27.699000 42 63 13 37 -23 27 95 32 28 12 18 42 36 5 
18:48:27.703000 41 62 7 32 -31 35 49 31 21 21 28 29 24 12 
18:48:27.718000 18 44 3 12 -27 10 70 15 7 6 19 11 14 15 
18:48:27.719000 -6 20 -8 1 -31 -9 88 -3 -2 -15 -8 0 4 -2 
18:48:27.736000 -6 19 -5 3 -37 -9 56 -9 -3 -10 -10 -5 6 -11 
18:48:27.736000 27 46 18 24 -16 10 33 18 18 17 18 18 29 18 
18:48:27.742000 36 56 14 42 -7 22 30 35 31 24 14 33 26 34 
18:48:27.755000 -2 33 -23 27 -34 3 66 2 2 -1 -17 0 -4 4 
18:48:27.757000 -21 23 -36 16 -45 -8 93 -20 -19 -15 -8 -20 -16 -15 
18:48:27.773000 9 37 -11 29 -30 8 39 11 1 -3 31 15 -1 -1 
18:48:27.773000 23 39 0 31 -33 12 18 30 8 -1 29 35 5 -5 
18:48:27.791000 4 31 -12 25 -45 0 66 18 -7 -11 2 15 -6 -17 
18:48:27.792000 -3 31 -17 22 -42 0 67 16 -2 -15 1 10 -10 -10 
18:48:27.798000 4 35 -9 12 -40 3 48 16 6 -17 12 22 3 -17 
18:48:27.810000 -9 26 -16 0 -51 -15 54 7 -9 -29 8 18 -4 -37 
18:48:27.812000 -21 15 -21 -5 -49 -34 29 -2 -18 -31 -7 -2 -25 -34 
18:48:27.829000 -11 16 -17 -9 -35 -18 9 -5 -6 -20 -3 -8 -16 -13 
18:48:27.829000 6 31 -24 -4 -30 2 55 -4 6 -10 3 -4 0 0 
18:48:27.837000 18 45 -14 17 -17 2 68 1 19 5 4 0 0 10 
18:48:27.848000 19 48 -3 26 -9 0 24 1 22 5 8 2 1 11 
18:48:27.853000 2 39 -17 18 -20 2 22 -3 8 -11 2 -2 -3 -2 
18:48:27.867000 0 41 -19 24 -17 7 72 -1 10 -8 3 1 -8 0 
18:48:27.867000 19 52 3 31 3 22 72 -2 27 7 19 6 1 22 
18:48:27.885000 26 54 10 28 6 30 4 3 29 12 27 6 10 29 
18:48:27.885000 16 56 0 36 -5 25 2 5 20 5 -11 3 3 12 
18:48:27.892000 4 48 -11 40 -21 15 41 -5 3 -5 -44 -2 -12 -1 
18:48:27.904000 -2 38 -12 31 -26 16 4 6 -5 -6 -7 -1 -11 1 
18:48:27.908000 6 44 6 33 -3 34 8 24 15 11 44 7 3 10 
18:48:27.923000 8 44 7 38 6 39 77 8 17 11 35 2 2 12 
18:48:27.923000 3 43 -4 42 -2 32 66 1 7 2 21 -4 -2 17 
18:48:27.931000 6 49 0 42 3 36 31 16 17 7 39 4 4 25 
18:48:27.942000 6 49 -6 33 -1 31 62 9 11 5 30 -1 -4 19 
18:48:27.947000 -5 36 -29 17 -25 9 59 -5 -14 -8 1 -27 -28 1 
18:48:27.961000 -17 25 -40 -1 -45 -8 5 -9 -24 -23 -6 -39 -33 -14 
18:48:27.962000 -12 25 -20 2 -30 -1 -8 -13 -3 -19 7 -19 -9 -8 
18:48:27.980000 7 37 6 21 -2 18 17 -5 15 -5 21 2 12 10 
18:48:27.980000 12 37 6 18 -7 18 46 4 13 -9 12 -10 9 11 
18:48:27.987000 -11 16 -2 -8 -33 -4 47 -13 -3 -30 -1 -32 -2 -10 
18:48:27.999000 -32 3 -1 -21 -37 -17 43 -28 -17 -48 -6 -34 -4 -26 
18:48:28.001000 -35 -2 -5 -28 -33 -23 33 -26 -21 -50 -23 -30 -2 -29 
18:48:28.018000 -30 -2 -5 -29 -33 -29 -11 -26 -13 -37 -34 -33 -2 -22 
18:48:28.018000 -26 -3 -5 -26 -26 -22 -27 -31 -1 -29 -18 -36 -7 -14 
18:48:28.026000 -33 -3 -19 -26 -30 -15 20 -32 -4 -37 -10 -32 -10 -19 
18:48:28.036000 -35 2 -21 -20 -44 -18 47 -19 -15 -36 -18 -17 -4 -27 
18:48:28.042000 -6 27 -4 3 -22 -2 17 -1 -4 -10 -4 2 1 -7 
18:48:28.056000 19 45 1 25 8 26 20 1 18 3 4 4 1 20 
18:48:28.057000 11 37 -7 29 2 29 23 -6 27 1 -4 -4 -3 23 
18:48:28.074000 5 35 0 28 -1 27 -13 -1 30 1 9 2 -2 25 
18:48:28.074000 -2 31 4 23 13 31 19 6 26 -6 22 1 3 24 
18:48:28.080000 -23 7 -14 3 4 12 87 -8 13 -25 -5 -24 -6 2 
18:48:28.093000 -13 5 -17 -6 -4 -2 80 -12 16 -24 -10 -25 -14 3 
18:48:28.096000 9 34 -1 8 13 13 26 -2 33 -3 12 -1 -1 30 
18:48:28.113000 1 30 -7 3 10 6 -4 -18 19 -11 -9 -5 -3 24 
18:48:28.113000 -4 16 -18 -7 -3 -4 1 -15 1 -21 -23 -12 -11 8 
18:48:28.132000 8 30 -9 10 5 15 47 14 12 -11 8 1 8 20 
18:48:28.132000 27 46 6 31 24 32 32 16 34 7 20 20 32 42 
18:48:28.135000 49 58 8 28 30 32 -48 4 42 21 6 28 30 54 
18:48:28.151000 30 54 -10 10 -3 17 -16 4 15 6 -1 15 22 36 
18:48:28.151000 2 30 -24 0 -28 1 84 -2 -12 -16 -1 7 27 10 
18:48:28.169000 19 30 -4 3 -9 2 76 -1 1 -5 3 28 35 20 
18:48:28.169000 35 47 9 2 6 5 -2 9 17 8 6 33 36 34 
18:48:28.176000 24 40 -4 1 -7 -1 -8 -3 2 -4 -8 6 27 18 
18:48:28.188000 27 26 -5 4 -8 -1 39 -10 -1 -10 -11 -4 26 13 
18:48:28.192000 29 32 3 6 3 3 47 -1 20 -1 2 8 30 30 
18:48:28.207000 17 37 1 2 11 0 -5 3 30 -1 2 8 29 36 
18:48:28.207000 15 31 1 1 26 2 -24 0 28 -6 -3 1 27 27 
18:48:28.215000 27 35 -3 13 31 13 39 0 36 5 5 5 26 33 
18:48:28.226000 41 58 0 35 31 33 82 16 47 23 38 29 33 53 
18:48:28.230000 43 66 8 39 33 39 62 22 44 26 36 37 38 50 
18:48:28.245000 31 52 8 30 32 23 26 3 34 12 -8 25 34 36 
18:48:28.246000 28 51 17 31 30 26 -4 -3 34 12 -2 24 31 42 
18:48:28.264000 34 58 23 36 35 47 -1 4 41 20 42 24 33 61 
18:48:28.264000 33 58 10 31 37 44 44 -8 38 20 23 7 27 66 
18:48:28.270000 22 52 -8 26 21 30 40 -26 22 12 -19 -12 14 54 
18:48:28.283000 30 61 5 43 23 50 13 -11 26 22 18 -3 22 60 
18:48:28.285000 55 84 31 61 46 75 53 18 49 45 68 24 38 82 
18:48:28.302000 53 85 26 46 34 61 76 18 44 42 46 24 31 78 
18:48:28.302000 39 72 10 36 6 50 41 0 20 31 16 11 20 56 
18:48:28.310000 57 82 25 61 21 66 17 14 39 41 36 27 31 62 
18:48:28.321000 64 94 44 68 35 63 11 34 58 41 50 47 38 66 
18:48:28.324000 31 64 23 42 14 38 41 17 33 16 8 28 28 34 
18:48:28.340000 1 30 12 24 -3 19 81 -6 9 -13 -13 2 25 -2 
18:48:28.340000 13 38 29 26 1 22 45 2 21 -16 35 7 28 -5 
18:48:28.358000 47 72 34 43 17 45 0 22 50 10 78 22 30 24 
18:48:28.358000 58 84 31 57 34 65 41 30 61 27 67 25 28 44 
18:48:28.364000 37 68 30 51 31 64 98 27 40 16 52 25 22 39 
18:48:28.377000 22 55 20 39 25 53 101 25 20 10 54 26 24 31 
18:48:28.380000 17 43 10 28 26 40 42 22 26 5 37 9 25 27 
18:48:28.396000 12 37 11 21 18 27 -12 9 30 -9 19 -4 11 26 
18:48:28.396000 25 56 15 31 14 34 32 1 24 4 24 4 12 39 
18:48:28.403000 32 65 9 38 13 38 102 2 20 25 30 6 27 48 
18:48:28.415000 12 48 9 24 0 25 47 -1 11 16 25 0 27 38 
18:48:28.419000 4 36 16 12 -4 25 -32 4 4 5 34 8 27 30 
18:48:28.434000 2 22 10 1 -2 17 12 8 0 0 33 8 21 14 
18:48:28.435000 -15 3 -15 -24 -15 -8 78 -16 -7 -19 -11 -11 0 -16 
18:48:28.452000 4 20 -10 -17 -8 3 55 -23 6 -15 -7 -7 5 1 
18:48:28.452000 53 61 29 32 33 52 -4 18 35 25 58 19 38 62 
18:48:28.459000 55 61 31 37 33 48 -19 26 28 14 63 12 34 57 
18:48:28.471000 21 38 -8 -7 -4 -8 29 -10 -5 -24 17 -16 10 6 
18:48:28.474000 19 44 -14 1 2 -3 67 -12 1 0 17 -14 17 31 
18:48:28.490000 31 66 21 43 42 58 48 27 36 44 43 20 36 88 
18:48:28.490000 14 53 21 35 31 48 22 30 33 15 32 27 22 56 
18:48:28.508000 -8 36 -7 24 -5 7 41 12 4 -25 26 11 4 13 
18:48:28.508000 9 56 10 57 10 38 30 32 9 1 69 29 24 45 
18:48:28.515000 34 78 32 76 41 81 -9 58 34 30 94 61 41 76 
18:48:28.527000 23 67 13 68 27 65 33 46 26 16 70 59 29 63 
18:48:28.529000 2 44 -3 54 1 37 84 28 -3 -1 46 37 23 39 
18:48:28.546000 -3 33 6 33 -9 24 20 35 -6 -6 40 34 31 21 
18:48:28.546000 -11 28 -1 16 -27 3 -38 31 -9 -22 40 28 27 17 
18:48:28.553000 -17 21 -16 21 -36 -7 22 19 -24 -28 50 23 15 26 
18:48:28.565000 4 30 -1 45 -5 18 49 28 -10 -1 66 32 24 41 
18:48:28.569000 20 45 20 56 9 34 -9 43 11 5 60 35 32 34 
18:48:28.584000 7 38 10 35 -17 10 -16 31 -3 -25 49 28 19 11 
18:48:28.585000 1 29 -4 23 -22 -2 10 13 -11 -27 30 20 8 20 
18:48:28.602000 30 61 15 55 15 35 11 23 26 12 23 28 29 62 
18:48:28.602000 53 84 33 71 36 58 16 36 48 30 56 45 38 78 
18:48:28.608000 55 76 34 62 37 51 28 35 48 27 95 57 30 72 
18:48:28.621000 62 79 35 70 38 50 27 39 58 38 95 59 42 83 
18:48:28.624000 61 90 37 73 36 44 31 44 58 38 72 51 57 89 
18:48:28.640000 46 80 32 56 30 30 37 30 28 26 60 40 50 80 
18:48:28.640000 31 63 22 40 18 22 33 10 -1 19 43 34 38 64 
18:48:28.658000 13 53 11 31 -5 5 36 2 -5 14 27 31 35 36 
18:48:28.658000 7 53 20 25 -14 -9 10 -1 -1 6 22 12 32 23 
18:48:28.664000 23 56 35 26 -3 -5 -10 5 14 14 -5 7 30 43 
18:48:28.677000 41 63 31 36 5 6 21 20 32 25 -2 28 44 63 
18:48:28.679000 34 63 26 34 3 6 37 28 21 21 51 28 55 49 
18:48:28.695000 6 44 29 12 -6 -4 16 9 -8 4 55 1 42 20 
18:48:28.695000 -3 32 29 13 7 1 22 1 5 3 22 -2 28 32 
18:48:28.703000 13 44 33 38 35 18 40 21 37 17 31 17 37 74 
18:48:28.715000 9 38 29 27 23 9 8 12 17 11 40 3 34 74 
18:48:28.719000 3 29 21 15 10 8 -14 1 6 6 30 -6 26 53 
18:48:28.734000 30 57 34 40 30 34 25 27 40 21 31 23 39 60 
18:48:28.734000 25 49 36 21 15 13 31 9 32 12 12 12 30 54 
18:48:28.753000 -15 -1 9 -27 -24 -28 -10 -43 -12 -15 -20 -34 5 22 
18:48:28.753000 -11 3 -3 -6 -13 -14 13 -26 -15 -10 -1 -24 16 21 
18:48:28.759000 2 37 4 31 4 12 68 16 -9 7 37 11 38 39 
18:48:28.773000 -24 27 -4 0 -24 -3 22 0 -32 -6 29 1 27 27 
18:48:28.775000 -24 24 0 -16 -33 -7 -43 -4 -29 -6 0 -4 21 28 
18:48:28.792000 6 40 13 23 -22 7 -6 20 -13 9 7 9 32 43 
18:48:28.792000 -3 34 0 26 -41 -3 28 9 -30 -5 33 -3 24 22 
18:48:28.799000 -14 27 0 -5 -33 -16 -27 -6 -26 -18 43 -9 24 14 
18:48:28.812000 3 29 19 -8 2 -14 -61 3 -1 -6 31 4 34 32 
18:48:28.814000 4 15 10 1 -7 -25 1 2 -13 -4 11 -1 18 19 
18:48:28.830000 -10 8 -10 3 -23 -32 63 1 -26 -15 10 -8 5 14 
18:48:28.830000 4 42 7 29 4 9 49 33 1 7 32 17 28 64 
18:48:28.849000 13 65 24 59 13 39 2 44 10 28 45 37 34 83 
18:48:28.849000 -13 33 4 28 -19 9 -22 15 -19 4 38 11 5 31 
18:48:28.853000 -36 -5 -10 -5 -34 -14 -5 9 -35 -29 31 -6 -10 0 
18:48:28.868000 -34 -2 -7 14 -30 -1 35 32 -37 -34 36 20 -3 4 
18:48:28.869000 -18 20 -1 35 -17 4 36 50 -24 -18 53 38 16 7 
18:48:28.886000 7 35 15 39 8 8 -9 57 8 -7 69 35 29 31 
18:48:28.886000 17 35 19 29 1 9 -31 45 12 -11 64 27 13 48 
18:48:28.893000 -1 22 6 7 -27 -17 -11 19 -12 -22 32 9 1 34 
18:48:28.905000 -13 14 4 2 -18 -31 11 6 -16 -19 -9 -6 8 29 
18:48:28.909000 -8 12 8 22 7 -8 1 9 -3 0 2 1 9 46 
18:48:28.924000 -7 1 1 27 -2 7 -3 11 3 7 39 11 18 57 
18:48:28.924000 -12 -4 5 16 -11 -8 13 5 -2 -3 9 5 31 55 
18:48:28.941000 -15 8 4 9 -3 -25 14 -6 -14 -12 -26 -3 11 36 
18:48:28.941000 -10 21 -8 -6 -6 -42 10 -10 -20 -16 12 -10 -12 21 
18:48:28.948000 10 35 10 -3 -1 -44 1 -4 -3 -11 48 -2 -2 44 
18:48:28.960000 27 54 25 27 20 -14 2 2 21 2 25 14 11 69 
18:48:28.964000 28 63 15 38 22 6 28 3 23 13 5 14 6 62 
18:48:28.979000 23 56 14 37 13 8 34 7 13 18 23 10 -2 60 
18:48:28.980000 11 39 12 35 11 7 1 16 6 13 35 18 -1 62 
18:48:28.987000 12 32 12 29 9 4 -8 26 6 4 32 27 19 56 
18:48:28.999000 28 36 27 27 3 -4 17 34 10 4 36 35 36 57 
18:48:29.003000 35 34 23 24 5 -22 14 30 10 -2 35 32 33 44 
18:48:29.018000 28 25 -4 -6 -10 -53 -13 4 3 -24 5 8 23 13 
18:48:29.019000 27 32 2 -24 -30 -61 -19 -11 -4 -27 -17 1 22 12 
18:48:29.036000 41 50 32 18 -14 -25 -14 18 5 6 13 33 35 39 
18:48:29.036000 35 46 27 28 -6 -16 -28 29 4 7 34 39 39 39 
18:48:29.043000 -4 18 5 -21 -33 -50 -23 -12 -12 -26 10 -1 16 12 
18:48:29.055000 -31 4 7 -23 -39 -48 6 -25 -5 -25 -5 -18 1 0 
18:48:29.058000 -26 6 12 12 -24 -20 9 -4 0 -13 -11 -6 6 2 
18:48:29.074000 -28 1 1 8 -27 -34 7 -18 -23 -33 -39 -6 3 3 
18:48:29.074000 -44 -8 -6 -3 -37 -59 29 -29 -39 -48 -33 -10 -2 -4 
18:48:29.082000 -40 -2 -1 6 -38 -35 32 -10 -33 -29 11 -11 11 -13 
18:48:29.092000 -13 21 14 15 -17 6 -1 4 -10 -8 34 4 31 3 
18:48:29.098000 -6 20 23 19 2 11 -13 4 8 -11 21 11 35 32 
18:48:29.112000 -35 -8 1 1 -24 -19 11 -15 -11 -33 1 -18 14 21 
18:48:29.114000 -37 -5 -7 3 -36 -17 33 -18 -27 -26 10 -26 -1 1 
18:48:29.130000 -3 26 13 40 -8 16 19 11 -5 6 34 18 13 21 
18:48:29.130000 8 39 21 47 8 17 10 22 16 12 40 40 27 40 
18:48:29.137000 7 31 21 26 8 10 34 3 10 4 28 15 27 30 
18:48:29.149000 10 29 22 23 13 27 34 -10 8 13 16 2 21 35 
18:48:29.153000 -2 17 12 28 12 30 20 -27 16 9 -5 -5 13 50 
18:48:29.168000 0 14 26 30 27 30 40 -26 26 10 -4 -17 13 52 
18:48:29.169000 0 13 31 16 35 28 48 -8 16 18 10 -24 2 38 
18:48:29.186000 -32 -3 -4 -11 14 -3 28 -25 -14 4 0 -37 -23 20 
18:48:29.186000 -31 5 -1 12 20 2 40 -23 -1 7 15 -24 -6 43 
18:48:29.192000 -5 27 28 53 42 45 67 9 29 29 33 3 22 75 
18:48:29.205000 -13 22 15 38 28 35 61 3 18 17 10 -1 4 54 
18:48:29.208000 -12 19 6 27 26 22 37 -7 14 10 5 -10 -8 47 
18:48:29.224000 -1 19 19 45 46 49 6 9 31 19 27 5 9 62 
18:48:29.224000 -28 2 6 33 28 44 -2 12 11 1 20 11 6 40 
18:48:29.232000 -50 -14 -14 -2 -7 3 32 -11 -33 -26 -6 -9 -8 15 
18:48:29.242000 -38 -9 -6 -10 -9 -10 51 -18 -29 -25 -3 -18 5 20 
18:48:29.248000 -18 -1 0 -2 3 1 26 3 0 -19 7 6 29 24 
18:48:29.262000 -10 -1 0 0 5 2 -12 18 0 -19 1 23 26 28 
18:48:29.262000 -20 -3 1 -2 -2 -3 -8 0 -21 -24 -9 0 1 16 
18:48:29.280000 -29 4 -3 6 -11 1 42 -8 -28 -29 4 -7 1 -12 
18:48:29.280000 -6 27 12 31 -1 26 62 25 -7 -8 38 34 28 15 
18:48:29.287000 23 46 33 52 21 49 20 47 15 17 43 51 37 59 
18:48:29.299000 20 48 31 55 26 42 -2 37 20 10 30 39 26 44 
18:48:29.303000 11 38 26 58 28 35 29 34 23 2 41 50 30 37 
18:48:29.318000 0 18 27 45 25 33 41 35 21 4 48 54 36 54 
18:48:29.319000 -27 -6 5 -1 1 5 24 13 -9 -22 15 17 17 31 
18:48:29.326000 -36 -10 -7 -2 -9 -6 36 1 -21 -34 1 2 10 14 
18:48:29.337000 -8 18 18 37 6 25 26 12 -10 -5 25 25 33 31 
18:48:29.342000 2 33 18 22 4 30 -33 2 -21 -2 25 16 27 29 
18:48:29.356000 -14 25 -2 3 -11 10 -29 -2 -31 -18 15 -13 -2 30 
18:48:29.357000 14 39 21 51 5 29 52 32 5 9 36 8 16 56 
18:48:29.375000 36 53 37 65 17 40 86 35 19 26 41 31 38 59 
18:48:29.375000 -1 26 6 14 -11 5 23 -9 -24 -10 7 0 9 16 
18:48:29.381000 -20 13 -2 6 -25 -4 -33 -8 -35 -28 -1 -14 -2 -14 
18:48:29.394000 3 43 22 42 -13 25 5 30 -13 0 25 25 32 13 
18:48:29.396000 12 53 26 44 -18 39 39 26 -18 16 42 38 37 37 
18:48:29.412000 -8 24 12 19 -39 20 -6 -4 -35 -11 30 3 2 5 
18:48:29.412000 -6 26 14 15 -29 5 -10 9 -32 -18 22 -8 3 -6 
18:48:29.430000 20 63 29 31 -5 16 50 30 -13 11 41 22 34 31 
18:48:29.430000 35 58 34 35 -2 32 36 9 -4 14 41 34 35 40 
18:48:29.437000 33 26 35 27 4 26 -3 5 10 -2 23 24 31 31 
18:48:29.449000 19 25 32 15 3 4 2 21 8 -7 25 20 30 32 
18:48:29.451000 4 27 10 2 -27 -9 -6 7 -28 -17 27 5 6 15 
18:48:29.468000 15 27 3 9 -24 -2 2 4 -29 -18 12 0 3 19 
18:48:29.468000 47 46 33 28 28 16 26 34 16 2 22 28 36 52 
18:48:29.476000 43 43 36 27 32 17 -2 28 20 4 40 34 34 49 
18:48:29.486000 9 16 8 -5 -21 -15 -36 -6 -23 -17 14 0 8 10 
18:48:29.492000 5 15 10 -34 -33 -40 -34 -18 -27 -29 -22 -18 7 -7 
18:48:29.507000 38 41 43 5 10 -3 -24 2 20 -7 8 12 35 28 
18:48:29.507000 35 38 39 44 8 24 -25 18 2 -2 46 31 42 35 
18:48:29.524000 -18 -1 0 -13 -67 -31 -47 -5 -79 -47 -5 -2 8 -29 
18:48:29.524000 -22 -14 3 -46 -75 -48 -51 -2 -59 -58 -29 -3 8 -42 
18:48:29.531000 10 9 37 19 12 19 -11 49 28 -24 42 55 54 10 
18:48:29.543000 6 12 37 40 44 44 13 61 22 -27 70 76 59 11 
18:48:29.546000 -12 -9 24 -3 14 11 -5 26 -13 -43 27 39 31 -8 
18:48:29.562000 -4 -2 30 3 65 31 -9 15 31 -16 16 25 29 40 
18:48:29.563000 15 26 31 37 154 114 9 30 49 36 41 35 30 112 
18:48:29.570000 42 45 33 59 194 196 3 31 26 101 49 33 15 182 
18:48:29.582000 80 62 56 86 255 267 -9 21 84 177 51 28 12 267 
18:48:29.585000 92 76 61 97 333 308 7 3 149 215 42 16 13 328 
18:48:29.601000 95 90 53 84 334 321 27 -1 78 231 35 6 19 335 
18:48:29.601000 111 103 46 94 318 349 6 6 25 267 35 10 24 352 
18:48:29.619000 130 119 40 108 376 381 -25 2 127 300 26 16 27 426 
18:48:29.619000 129 122 40 63 392 356 -25 -10 149 279 1 6 25 455 
18:48:29.626000 122 113 40 49 350 332 -27 -8 72 266 -12 13 28 427 
18:48:29.638000 129 118 37 114 373 387 -32 12 113 322 13 46 50 468 
18:48:29.642000 117 120 36 131 400 404 -23 11 134 350 27 41 50 513 
18:48:29.656000 93 103 29 77 328 326 -26 -12 27 276 -8 -7 6 410 
18:48:29.656000 100 110 23 76 301 288 -36 -11 46 207 -10 -15 -10 325 
18:48:29.674000 114 124 30 103 376 308 -33 7 159 226 31 23 24 386 
18:48:29.674000 96 98 39 78 374 287 -25 0 122 262 21 25 30 399 
18:48:29.681000 68 67 29 66 295 250 -40 -3 46 241 -5 0 0 337 
18:48:29.693000 50 55 13 63 278 230 -68 15 66 185 15 15 -4 333 
18:48:29.695000 39 42 18 36 273 192 -66 12 93 145 20 32 7 334 
18:48:29.711000 26 24 26 10 192 126 -52 -11 45 86 -7 7 3 274 
18:48:29.711000 -5 10 7 10 170 90 -69 -13 3 -19 -2 -2 10 283 
18:48:29.729000 -24 6 -2 23 244 101 -83 13 32 -117 22 28 38 363 
18:48:29.730000 -1 20 27 35 268 109 -41 39 46 -148 31 42 61 354 
18:48:29.735000 14 30 39 36 248 93 -7 34 39 -139 36 39 64 324 
18:48:29.748000 -11 14 7 10 226 58 -53 5 20 -154 9 23 33 338 
18:48:29.751000 -22 -8 -1 -15 195 24 -90 -14 -14 -166 -28 -4 -5 328 
18:48:29.767000 4 3 24 -2 218 25 -43 -4 24 -145 -11 -6 9 328 
18:48:29.767000 0 7 22 21 270 31 -16 3 92 -128 22 8 29 366 
18:48:29.775000 -42 -29 -2 4 225 -11 -52 -9 24 -164 4 -3 10 318 
18:48:29.786000 -55 -41 -11 -35 166 -70 -77 -19 -59 -243 -27 -16 -12 218 
18:48:29.791000 -34 -17 -4 -42 214 -79 -72 -10 28 -243 -14 -9 -3 253 
18:48:29.805000 -22 -11 4 -30 241 -59 -52 6 59 -163 8 3 17 309 
18:48:29.806000 -33 -25 6 -25 190 -57 -32 1 -29 -140 -4 0 16 269 
18:48:29.824000 -49 -30 -6 -16 209 -53 -51 -8 12 -186 -13 -3 9 272 
18:48:29.824000 -29 -18 6 -3 236 -40 -78 7 43 -206 16 15 24 267 
18:48:29.831000 6 2 26 -4 162 -49 -51 29 -65 -193 37 34 37 208 
18:48:29.843000 -9 -6 9 -7 152 -65 -30 25 -47 -182 27 30 28 239 
18:48:29.845000 -35 -23 -8 4 247 -57 -52 8 86 -164 25 28 29 317 
18:48:29.861000 -30 -22 1 -10 242 -67 -73 -2 57 -182 22 26 30 267 
18:48:29.861000 -22 -20 3 -31 163 -96 -63 -4 -39 -205 2 12 15 193 
18:48:29.879000 -14 -20 2 -19 174 -95 -37 12 -38 -189 10 19 25 197 
18:48:29.880000 -14 -20 8 -20 192 -97 -42 17 -37 -180 15 31 36 192 
18:48:29.886000 -36 -35 4 -42 180 -106 -50 -1 -19 -182 -9 20 25 204 
18:48:29.899000 -37 -36 6 -33 197 -91 -46 2 20 -180 7 28 31 208 
18:48:29.901000 -27 -29 11 -21 181 -93 -75 11 -27 -194 30 36 35 141 
18:48:29.917000 -48 -38 3 -36 158 -116 -85 1 -58 -195 7 16 14 131 
18:48:29.917000 -59 -46 -6 -34 187 -107 -26 3 -2 -177 0 2 1 189 
18:48:29.925000 -41 -41 -7 -27 195 -87 -12 -5 7 -182 18 -3 2 160 
18:48:29.936000 -33 -27 -3 -34 157 -100 -67 -32 -45 -195 19 -14 -2 105 
18:48:29.940000 -31 -12 -1 -27 163 -99 -61 -20 -31 -176 15 -5 1 162 
18:48:29.955000 -25 -11 -6 -21 194 -70 -23 2 16 -165 15 2 3 196 
18:48:29.956000 -29 -17 -14 -20 178 -66 -27 -19 5 -179 18 -15 -7 140 
18:48:29.973000 -27 -13 -8 -12 151 -75 -42 -26 -27 -174 24 -15 -13 138 
18:48:29.973000 16 13 19 16 167 -51 -38 16 1 -138 35 19 -2 180 
18:48:29.979000 51 44 32 36 205 -28 -12 42 56 -110 53 48 13 186 
18:48:29.992000 26 24 12 10 178 -57 -1 13 19 -137 42 24 2 148 
18:48:29.995000 -3 -20 -9 -44 114 -96 -30 -25 -44 -191 2 -24 -29 103 
18:48:30.010000 -5 -26 -4 -59 118 -100 -46 -33 -2 -201 -2 -29 -38 115 
18:48:30.011000 -13 -11 -1 -21 139 -87 -33 -22 43 -174 16 -5 -16 141 
18:48:30.028000 -21 -15 -6 1 122 -72 -46 -13 5 -160 13 -2 0 118 
18:48:30.028000 -3 -19 4 2 126 -57 -60 -4 -8 -157 18 -1 -1 117 
18:48:30.035000 -2 -9 12 4 136 -51 -36 7 18 -151 31 12 0 136 
18:48:30.047000 -27 0 4 -10 100 -61 -16 7 -10 -160 25 8 -2 89 
18:48:30.050000 -20 4 -2 -16 86 -65 -28 3 -38 -174 25 1 -1 62 
18:48:30.066000 -6 -6 2 -7 92 -60 -33 6 -29 -160 23 6 5 91 
18:48:30.067000 -26 -20 -1 -29 58 -85 -27 3 -45 -174 -2 -2 2 55 
18:48:30.075000 -35 -12 -3 -45 57 -102 -56 -1 -29 -201 0 -9 -3 46 
18:48:30.086000 -26 -14 -1 -20 99 -78 -73 1 23 -171 23 -2 -2 104 
18:48:30.090000 -25 -30 -4 -13 97 -70 -19 2 8 -148 10 4 1 92 
18:48:30.105000 -21 -34 -5 -36 52 -96 16 -2 -47 -178 -17 6 1 35 
18:48:30.105000 -16 -21 1 -35 57 -96 -28 3 -25 -186 5 23 3 65 
18:48:30.123000 -30 -24 3 -25 85 -76 -59 13 18 -161 34 36 5 97 
18:48:30.123000 -34 -35 -2 -36 64 -92 -42 6 -5 -176 15 16 2 48 
18:48:30.129000 -33 -35 -13 -57 40 -120 -37 -5 -37 -197 -12 -5 -4 19 
18:48:30.142000 -40 -26 -6 -63 46 -119 -24 -9 -41 -181 -12 3 0 23 
18:48:30.145000 -16 -4 26 -30 64 -81 -4 2 -22 -154 13 20 23 32 
18:48:30.160000 1 4 36 11 81 -47 -15 21 12 -153 38 18 34 67 
18:48:30.161000 -20 -17 8 -14 45 -77 -43 2 -8 -194 15 -16 8 20 
18:48:30.168000 -25 -30 -6 -54 -5 -105 -38 -27 -40 -202 -21 -31 -9 -51 
18:48:30.179000 -3 -7 14 -27 43 -71 -14 6 1 -149 14 4 12 33 
18:48:30.184000 20 28 36 14 113 -40 -2 47 72 -105 74 37 41 118 
18:48:30.198000 12 13 34 -2 77 -51 3 17 43 -109 44 14 33 52 
18:48:30.200000 -17 -30 15 -42 13 -69 -11 -20 -73 -171 -13 -16 6 -1 
18:48:30.217000 -20 -14 4 -57 32 -85 -34 0 -62 -217 17 -9 3 41 
18:48:30.218000 3 10 3 -43 64 -86 -42 7 54 -170 47 -6 11 51 
18:48:30.224000 -2 -20 5 -26 47 -61 -24 -11 43 -115 7 -5 3 29 
18:48:30.237000 -32 -46 0 -40 18 -61 6 -10 -50 -150 -20 -5 -10 34 
18:48:30.239000 -26 -22 0 -43 21 -68 9 -7 -45 -163 13 -16 -5 34 
18:48:30.255000 -23 -18 1 -18 38 -54 -19 -22 -10 -127 17 -26 -8 29 
18:48:30.255000 -55 -56 -6 -34 26 -71 -40 -42 -33 -156 -43 -41 -29 29 
18:48:30.275000 -60 -70 -3 -66 21 -89 -29 -37 -32 -197 -57 -44 -18 28 
18:48:30.275000 -44 -48 6 -51 36 -60 -31 -20 -22 -184 -8 -36 -4 28 
18:48:30.280000 -48 -28 7 -21 42 -27 -25 -4 -31 -175 30 -28 -11 36 
18:48:30.294000 -52 -29 1 -18 43 -31 -8 5 -12 -184 26 -22 -8 32 
18:48:30.296000 -52 -38 -1 -36 15 -56 -15 -10 -30 -188 5 -29 -5 3 
18:48:30.312000 -59 -44 1 -50 -34 -73 -21 -23 -109 -201 -11 -37 -15 -26 
18:48:30.312000 -40 -28 4 -33 -18 -53 -1 -5 -76 -189 -3 -17 -3 -2 
18:48:30.319000 -21 -14 6 -16 51 -22 0 9 50 -144 9 6 13 49 
18:48:30.331000 -32 -23 6 -49 46 -37 -23 2 35 -138 0 4 1 24 
18:48:30.335000 -36 -23 7 -66 -11 -58 -20 -6 -72 -166 4 -5 -3 -18 
18:48:30.350000 -29 -15 2 -18 -10 -39 -23 -18 -62 -159 5 -20 -5 12 
18:48:30.351000 -32 -23 -3 7 10 -21 -42 -22 -8 -147 -9 -26 -12 23 
18:48:30.368000 -40 -39 -9 -25 -2 -38 -34 -6 -32 -168 -6 -15 -12 -16 
18:48:30.368000 -37 -30 -6 -39 2 -43 -29 -2 -43 -162 8 -14 -10 1 
18:48:30.374000 -10 -9 13 -17 50 -18 -36 -9 -4 -127 6 -17 -4 50 
18:48:30.387000 4 -11 12 -21 71 -15 -21 -2 10 -132 -2 -11 -1 44 
18:48:30.390000 -9 -22 -3 -43 29 -39 3 -3 -18 -144 4 -9 -8 6 
18:48:30.405000 4 2 12 -10 29 -22 7 1 2 -101 31 7 -2 35 
18:48:30.406000 30 36 31 32 70 17 13 27 24 -70 50 32 10 88 
18:48:30.423000 33 36 19 18 47 4 0 34 -11 -99 37 29 1 48 
18:48:30.423000 23 33 12 12 20 -9 -33 25 -4 -112 41 25 -2 27 
18:48:30.430000 17 36 18 30 43 10 -20 31 19 -97 62 35 7 64 
18:48:30.442000 11 25 4 6 26 -12 2 33 -20 -112 47 33 1 31 
18:48:30.445000 14 16 2 -10 8 -37 -22 30 -17 -126 29 33 2 14 
18:48:30.460000 6 1 15 1 28 -32 -34 29 25 -134 25 36 15 38 
18:48:30.461000 -30 -23 -4 -37 3 -60 -29 12 -22 -182 2 12 4 -38 
18:48:30.478000 -48 -29 -24 -82 -52 -95 -33 -6 -89 -192 -7 -13 -11 -85 
18:48:30.478000 -16 -2 -6 -53 -47 -71 -33 0 -80 -168 20 -2 -6 -45 
18:48:30.485000 9 18 9 -4 2 -37 -33 13 -34 -173 28 11 -5 -37 
18:48:30.497000 2 13 -1 9 38 -26 -21 19 3 -149 24 -1 -8 -10 
18:48:30.500000 1 4 8 -15 34 -32 0 24 0 -98 34 0 -2 30 
18:48:30.515000 16 6 25 -26 3 -38 -34 23 -14 -123 39 24 3 8 
18:48:30.516000 9 1 13 -4 -3 -22 -74 10 13 -160 36 27 2 21 
18:48:30.533000 -6 -19 -1 -4 9 -12 -25 -4 -3 -109 23 3 -1 97 
18:48:30.533000 -4 -10 2 -16 16 -37 18 -7 -72 -93 3 -5 4 135 
18:48:30.540000 10 23 5 -5 24 -57 -35 4 -31 -146 -2 5 16 115 
18:48:30.553000 13 28 -11 -39 19 -79 -81 0 39 -160 13 2 7 81 
18:48:30.556000 15 25 -7 -92 8 -112 -43 -7 -38 -156 24 -4 -6 92 
18:48:30.572000 52 44 27 -35 37 -71 8 9 -69 -164 27 6 18 149 
18:48:30.572000 67 42 34 31 121 -3 10 22 65 -101 35 11 35 232 
18:48:30.579000 26 6 22 -3 151 -16 -16 -2 84 -36 28 -4 8 289 
18:48:30.591000 -5 -15 22 -26 94 -39 -43 -33 -34 -102 -4 -15 -12 265 
18:48:30.595000 -4 -20 15 4 89 -3 -47 -24 -16 -180 -11 -6 -5 267 
18:48:30.609000 8 -13 15 22 148 36 -17 3 56 -193 27 12 6 355 
18:48:30.611000 22 -3 30 2 152 29 -1 3 14 -226 37 12 15 404 
18:48:30.628000 39 5 22 -29 100 -5 -45 -21 -34 -323 2 -5 13 311 
18:48:30.628000 17 -1 3 -12 126 34 -71 -22 27 -289 -8 -7 4 362 
18:48:30.634000 -5 -8 14 10 154 92 -21 -8 6 -174 12 2 2 433 
18:48:30.647000 36 29 21 -30 82 27 6 -11 -123 -246 14 0 5 227 
18:48:30.650000 34 37 2 -38 82 -2 -50 -16 -68 -305 0 -11 -5 258 
18:48:30.665000 -44 -26 -16 22 209 124 -94 -19 120 -148 -2 -22 -18 640 
18:48:30.665000 -50 -48 -11 29 245 182 -43 -21 70 -45 16 -18 -11 716 
18:48:30.683000 13 -3 5 -5 187 134 2 -25 -80 -111 32 -3 -7 543 
18:48:30.683000 9 16 4 13 243 162 -27 -24 15 -110 27 -3 -14 661 
18:48:30.690000 -12 16 -12 54 327 199 -47 -13 122 -26 25 -5 -8 827 
18:48:30.703000 3 23 -22 58 298 157 -40 -12 34 25 35 -1 -2 794 
18:48:30.705000 -6 7 -32 32 262 132 -46 -29 -29 29 30 -10 -25 758 
18:48:30.722000 -6 8 -36 23 261 132 -38 -29 -3 14 19 -16 -35 749 
18:48:30.722000 4 20 -17 40 276 121 -11 -6 8 57 31 2 -11 838 
18:48:30.729000 1 14 6 58 301 124 -13 0 11 102 42 10 4 916 
18:48:30.741000 9 25 0 56 298 135 -16 -10 18 66 38 2 -4 811 
18:48:30.745000 5 25 -23 40 258 122 -9 -22 0 44 32 3 -21 762 
18:48:30.753000 -27 -7 -21 43 248 115 -28 -34 -3 69 24 -6 -32 853 
18:48:30.765000 -7 11 -2 41 259 118 -40 -24 -6 39 44 -28 -31 771 
18:48:30.767000 44 57 -5 18 220 91 -37 -13 -31 -8 65 -34 -34 605 
18:48:30.784000 17 29 -27 19 203 81 -28 -30 -12 37 35 -28 -37 722 
18:48:30.784000 -30 -25 -34 37 256 112 -18 -49 41 105 8 -34 -35 888 
18:48:30.792000 -14 -13 -17 33 273 108 -36 -38 26 74 20 -42 -32 774 
18:48:30.802000 17 28 1 43 249 91 -58 -3 0 53 41 -18 -16 707 
18:48:30.808000 7 32 3 57 250 106 -24 11 32 96 48 1 1 828 
18:48:30.822000 -14 5 -7 12 242 86 8 -18 37 79 40 -24 -3 827 
18:48:30.823000 -9 -8 -7 -12 200 47 -21 -36 -15 42 25 -39 -9 735 
18:48:30.841000 7 18 5 19 181 57 -39 -9 -29 43 30 -13 -1 713 
18:48:30.841000 2 28 3 24 189 65 -17 4 -5 36 44 -1 6 713 
18:48:30.847000 -19 5 -20 -9 160 30 -32 -29 -22 3 29 -18 -5 689 
18:48:30.860000 -9 5 -25 -6 116 16 -63 -29 -50 -4 21 -15 -10 632 
18:48:30.863000 12 19 -10 21 124 33 -43 4 -33 28 36 4 -1 603 
18:48:30.879000 -4 -2 -13 10 158 35 -26 -2 -18 50 26 3 0 660 
18:48:30.879000 -1 -6 -8 -3 152 30 -45 -20 -40 33 6 5 0 683 
18:48:30.887000 38 36 17 -1 134 27 -37 -5 -28 -17 18 21 4 588 
18:48:30.898000 51 55 15 10 146 23 -18 3 31 -13 36 29 6 549 
18:48:30.902000 29 31 1 29 164 30 -30 -7 52 45 29 25 8 625 
18:48:30.916000 3 8 7 27 165 39 -39 -3 28 59 25 19 10 666 
18:48:30.917000 -25 -6 -3 -7 135 17 -53 -9 -8 17 16 2 -2 607 
18:48:30.935000 -29 -14 -19 -17 113 -7 -65 -17 -30 5 11 -5 0 564 
18:48:30.935000 10 7 1 8 126 3 -33 10 -27 25 35 19 32 567 
18:48:30.942000 37 35 24 21 143 28 -26 32 3 56 51 42 43 590 
18:48:30.954000 29 27 20 23 131 45 -54 10 14 79 36 31 27 604 
18:48:30.956000 43 39 7 11 85 21 -56 -10 -20 27 22 5 18 496 
18:48:30.973000 70 69 0 6 70 -10 -51 3 -25 -9 29 1 22 429 
18:48:30.973000 39 41 1 35 122 25 -40 15 23 63 37 24 30 571 
18:48:30.981000 -8 3 3 51 146 77 -12 12 34 103 32 39 35 634 
18:48:30.991000 8 26 -1 30 99 67 -16 14 -17 54 22 31 30 483 
18:48:30.997000 35 49 2 24 89 43 -32 23 -19 46 40 35 26 440 
18:48:31.010000 27 32 18 46 127 61 -30 33 37 93 62 53 36 541 
18:48:31.012000 25 28 18 50 125 66 -47 41 43 104 52 49 32 533 
18:48:31.028000 27 30 6 34 89 45 -63 26 11 78 28 28 8 456 
18:48:31.028000 9 20 2 10 64 26 -33 0 -6 64 15 15 -2 416 
18:48:31.036000 -9 13 -11 0 56 17 -14 -9 -29 64 8 4 -1 424 
18:48:31.046000 -15 3 -20 10 62 26 -54 -3 -32 74 -1 0 -7 462 
18:48:31.052000 8 7 -7 3 70 24 -74 -2 2 71 -6 8 -4 398 
18:48:31.066000 24 20 -5 -6 68 11 -35 -3 12 73 -2 7 0 341 
18:48:31.067000 2 18 -23 12 59 15 -15 -9 -9 91 -7 4 -25 419 
18:48:31.084000 4 21 -16 17 55 28 -35 -6 -1 65 -9 22 -30 427 
18:48:31.084000 44 47 6 8 58 26 -41 24 6 24 15 41 1 324 
18:48:31.091000 41 46 -2 30 65 29 -57 34 -11 60 44 33 0 340 
18:48:31.103000 2 3 -28 32 62 41 -83 2 0 108 24 3 -25 414 
18:48:31.106000 -2 -9 -26 8 50 40 -53 -10 8 94 2 -12 -15 379 
18:48:31.122000 7 9 -6 19 44 33 -19 11 -19 82 21 -3 3 344 
18:48:31.122000 -1 1 -8 22 43 21 -35 14 -31 90 21 5 -1 368 
18:48:31.140000 -1 -15 -15 -20 40 5 -48 -5 -17 70 0 -1 2 338 
18:48:31.140000 -11 -19 -14 -51 25 -17 -51 -23 -28 53 -13 -12 -1 278 
18:48:31.147000 -30 -28 -22 -46 -5 -38 -72 -38 -54 44 -32 -25 -11 281 
18:48:31.159000 -6 -12 -13 -12 2 -18 -65 -22 -24 35 -25 -9 15 287 
18:48:31.161000 35 36 8 10 11 10 -23 5 0 19 0 19 42 205 
18:48:31.178000 22 30 -6 -22 -35 -13 -34 -17 -65 22 -14 9 16 185 
18:48:31.178000 -5 -5 -19 -25 -37 -18 -68 -35 -71 85 -25 -10 0 304 
18:48:31.186000 3 8 -6 27 25 31 -50 -1 20 103 3 1 32 328 
18:48:31.197000 1 20 -11 33 28 48 -44 6 24 43 7 8 36 237 
18:48:31.202000 -16 -6 -28 -5 -18 21 -66 -26 -43 42 -7 -14 1 208 
18:48:31.216000 -11 -15 -29 -18 -19 1 -64 -37 -47 68 -3 -31 -8 187 
18:48:31.217000 6 0 -26 -25 -2 -4 -65 -29 -20 32 -5 -25 2 175 
18:48:31.233000 6 2 -28 -33 -4 -2 -68 -21 -16 24 -7 -21 -6 219 
18:48:31.234000 -3 -3 -19 -16 -1 1 -31 -3 -22 72 3 -15 -12 216 
18:48:31.241000 -1 -4 -8 -13 -6 4 -10 7 -36 65 1 2 -2 156 
18:48:31.253000 -1 -21 -17 -35 -26 -3 -41 2 -38 31 -18 5 0 146 
18:48:31.257000 -8 -37 -29 -38 -35 -19 -65 -3 -25 38 -30 -6 -9 167 
18:48:31.272000 -10 -21 -31 -30 -28 -21 -63 -2 -29 27 -16 5 -9 126 
18:48:31.272000 3 5 -19 -31 -38 -3 -65 9 -45 7 4 25 4 83 
18:48:31.290000 8 6 -13 -14 -59 18 -70 14 -46 51 5 18 13 133 
18:48:31.290000 -14 -11 -24 7 -49 24 -50 3 -28 74 2 -6 0 179 
18:48:31.296000 -36 -24 -34 -5 -33 10 -16 -2 -45 15 1 -20 -21 109 
18:48:31.308000 -33 -33 -33 -12 -35 -1 -21 3 -65 7 -1 -12 -18 70 
18:48:31.311000 -24 -30 -24 1 -17 10 -41 3 -11 61 3 -2 -1 128 
18:48:31.327000 -29 -30 -11 -9 0 14 -32 1 18 39 4 -1 4 120 
18:48:31.328000 -36 -46 1 -45 -26 -12 -30 1 -33 -9 -16 0 0 46 
18:48:31.346000 -34 -54 -2 -62 -43 -29 -44 -9 -37 14 -34 -9 4 42 
18:48:31.346000 -33 -49 -9 -57 -25 -26 -41 -26 7 31 -36 -23 5 85 
18:48:31.350000 -30 -46 -14 -61 -29 -27 -31 -26 -19 5 -42 -19 -3 77 
18:48:31.365000 -17 -32 -11 -63 -43 -25 -25 -3 -49 10 -33 1 -5 54 
18:48:31.366000 3 -4 5 -31 -35 -4 -40 17 -17 43 3 15 9 59 
18:48:31.383000 9 5 -7 6 -42 17 -67 12 3 39 6 10 0 57 
18:48:31.383000 3 8 -33 11 -57 21 -54 6 -17 11 -6 -5 -32 49 
18:48:31.390000 12 22 -20 21 -43 39 -24 28 -32 33 22 7 -26 70 
18:48:31.402000 28 30 2 47 -25 67 -32 48 -21 83 49 37 0 98 
18:48:31.406000 27 28 1 36 -35 61 -33 33 -6 92 34 36 -7 56 
18:48:31.421000 20 14 -4 2 -46 30 -31 8 -5 68 9 7 -21 26 
18:48:31.421000 22 -2 -1 -1 -23 22 -61 2 9 60 0 -5 -9 76 
18:48:31.439000 30 -2 13 0 5 29 -46 2 32 66 -2 -2 4 95 
18:48:31.439000 35 5 27 -27 3 15 -18 -1 32 65 -1 2 6 54 
18:48:31.446000 32 -4 18 -38 -8 8 -29 -6 25 54 -6 -4 6 40 
18:48:31.458000 30 -11 4 -8 2 24 -27 0 38 53 -12 -4 11 65 
18:48:31.461000 26 -4 10 8 1 34 -24 5 36 65 -8 13 18 44 
18:48:31.477000 9 -2 1 -4 -32 30 -42 2 7 61 1 16 9 -6 
18:48:31.478000 -7 -2 -19 5 -53 40 -31 15 -15 57 14 15 0 -14 
18:48:31.484000 -7 -5 -12 30 -53 62 -18 31 -33 69 27 35 18 -7 
18:48:31.497000 1 0 3 40 -50 83 -57 39 -18 79 49 56 32 3 
18:48:31.500000 -6 12 0 38 -42 85 -81 55 20 80 60 64 31 7 
18:48:31.515000 -23 9 2 30 -37 67 -37 60 10 84 48 65 28 -35 
18:48:31.516000 -28 -2 3 25 -55 53 -1 34 -23 81 32 46 12 -65 
18:48:31.533000 -23 0 -5 18 -64 46 -36 19 -12 81 21 24 -4 -30 
18:48:31.533000 -12 10 12 12 -34 46 -44 34 21 104 20 32 5 -22 
18:48:31.540000 0 21 26 7 -27 41 -1 29 16 104 8 26 13 -75 
18:48:31.552000 2 29 9 3 -54 30 -17 -3 -2 95 -9 -1 -3 -70 
18:48:31.555000 6 24 10 -1 -47 31 -36 -7 11 126 7 5 -5 -30 
18:48:31.571000 27 26 25 -1 -27 40 -4 24 32 162 29 27 16 -41 
18:48:31.572000 35 30 13 5 -45 33 -14 26 25 161 11 23 28 -76 
18:48:31.579000 32 17 1 5 -77 28 -44 5 2 152 -2 15 26 -106 
18:48:31.592000 29 8 4 6 -92 35 -33 19 -7 147 20 24 28 -122 
18:48:31.595000 10 12 -2 18 -105 33 -56 34 -17 140 27 27 29 -138 
18:48:31.612000 18 25 4 42 -98 53 -73 33 -8 160 35 33 32 -138 
18:48:31.612000 41 34 17 53 -80 76 -30 38 9 174 43 46 41 -132 
18:48:31.618000 7 3 -3 -1 -103 28 -54 13 -37 128 -4 16 19 -198 
18:48:31.632000 -17 -19 -1 -38 -102 -7 -96 -12 -37 105 -31 -7 0 -219 
18:48:31.634000 11 4 32 -11 -49 30 -20 11 47 143 1 20 26 -150 
18:48:31.652000 25 22 32 -5 -41 37 51 18 49 148 2 25 36 -171 
18:48:31.653000 8 3 8 -26 -79 -6 -2 -7 -18 120 -33 -3 3 -242 
18:48:31.658000 9 1 11 -9 -68 -5 -43 -4 6 141 -33 -1 -1 -190 
18:48:31.672000 28 24 16 4 -43 11 -15 3 53 172 -26 11 12 -151 
18:48:31.674000 25 27 6 -18 -69 -5 -17 -6 22 163 -37 4 6 -211 
18:48:31.681000 17 21 12 -12 -73 3 -34 9 14 157 -21 16 10 -212 
18:48:31.691000 16 19 15 8 -60 17 -22 30 28 151 0 34 17 -192 
18:48:31.697000 21 28 5 2 -82 12 -44 32 9 136 -3 34 16 -237 
18:48:31.709000 24 34 -4 4 -98 17 -70 36 -11 125 4 41 18 -257 
18:48:31.713000 6 18 -14 5 -99 20 -51 34 -25 110 4 33 6 -243 
18:48:31.728000 -17 3 -15 -4 -116 8 -51 18 -37 88 -24 4 -8 -275 
18:48:31.729000 -1 18 0 -1 -114 16 -54 18 -14 88 -25 8 17 -318 
18:48:31.746000 33 33 9 7 -83 28 -3 24 18 106 -2 28 40 -288 
18:48:31.746000 15 7 0 -11 -86 8 16 10 14 87 -18 12 15 -265 
18:48:31.752000 -12 -11 -4 -32 -100 -4 -10 7 5 62 -40 -3 -6 -298 
18:48:31.765000 -4 0 6 -34 -74 -4 -12 10 14 89 -34 0 5 -301 
18:48:31.768000 10 0 17 -15 -48 -2 -29 2 40 129 -29 2 14 -271 
18:48:31.785000 21 1 12 -1 -44 10 -36 3 65 126 -30 5 6 -275 
18:48:31.786000 32 21 1 -20 -53 4 24 -5 50 69 -34 -6 -1 -320 
18:48:31.793000 27 24 -1 -43 -78 -24 21 -28 9 19 -45 -29 -2 -337 
18:48:31.805000 9 -4 -4 -38 -95 -33 -47 -21 10 37 -43 -32 -5 -319 
18:48:31.809000 2 -20 -5 -24 -82 -17 -31 4 40 76 -31 -21 2 -327 
18:48:31.824000 0 -13 -1 -31 -80 -28 12 -1 25 30 -30 -19 3 -382 
18:48:31.824000 -6 -8 -5 -38 -102 -41 -23 -8 -10 -27 -23 -15 -7 -396 
18:48:31.832000 -3 6 -1 -9 -97 1 -56 18 10 16 0 12 6 -341 
18:48:31.843000 9 26 11 26 -84 38 -26 33 37 44 7 29 27 -331 
18:48:31.848000 0 11 -3 7 -112 10 16 8 10 -19 -15 2 7 -395 
18:48:31.862000 -15 -11 -17 -26 -129 -15 7 -6 -19 -49 -27 -22 -14 -437 
18:48:31.864000 -7 -2 -1 -21 -105 1 -36 7 -1 -20 -21 -9 0 -405 
18:48:31.881000 -7 3 5 -20 -87 1 -30 3 25 -17 -25 -1 3 -375 
18:48:31.881000 -28 -10 -19 -34 -93 -23 10 -8 18 -34 -34 -9 -9 -399 
18:48:31.887000 -35 -13 -30 -40 -98 -32 9 -4 -4 -40 -32 -3 -14 -421 
18:48:31.900000 -19 -1 -18 -33 -91 -26 -19 8 -2 -32 -21 3 -19 -396 
18:48:31.903000 -4 9 -6 -7 -81 0 -21 18 21 -6 -2 4 -13 -358 
18:48:31.919000 2 8 -11 2 -89 3 -20 15 21 -10 -2 6 0 -390 
18:48:31.919000 7 2 -22 -15 -117 -24 -41 3 -12 -49 -27 0 -3 -451 
18:48:31.927000 -1 5 -16 -9 -123 -20 -36 3 -26 -45 -26 -4 -4 -415 
18:48:31.937000 -21 -3 -8 4 -105 2 3 12 -8 -27 -5 -4 1 -357 
18:48:31.942000 -12 -7 2 2 -110 4 37 26 1 -21 4 3 7 -404 
18:48:31.956000 10 12 15 7 -114 -2 40 36 3 -30 0 13 10 -440 
18:48:31.958000 -15 9 8 -4 -98 -15 7 15 13 -66 -16 -5 -7 -394 
18:48:31.975000 -43 -15 -7 -37 -90 -36 -21 -7 9 -67 -32 -24 -21 -382 
18:48:31.975000 -23 -13 -1 -34 -89 -33 10 4 4 -25 -25 -7 -3 -400 
18:48:31.982000 0 -1 6 -20 -93 -25 41 8 5 -38 -20 8 12 -407 
18:48:31.994000 -10 -7 -8 -45 -118 -43 4 -5 -10 -83 -37 -7 -1 -436 
18:48:31.998000 -18 -2 -3 -45 -123 -34 -17 7 -6 -64 -19 2 -1 -436 
18:48:32.013000 -29 -4 0 -15 -107 -11 3 15 14 -50 2 11 11 -402 
18:48:32.013000 -63 -37 -27 -31 -134 -36 8 -20 -21 -80 -40 -29 -2 -423 
18:48:32.031000 -60 -34 -25 -50 -145 -47 8 -27 -44 -82 -62 -37 -7 -459 
18:48:32.031000 -10 8 4 -19 -101 -12 11 5 7 -60 -22 3 6 -445 
18:48:32.037000 7 15 10 0 -84 2 15 10 41 -54 0 10 7 -399 
18:48:32.050000 -3 3 9 -4 -82 -5 24 1 41 -45 -3 -6 -3 -361 
18:48:32.053000 -5 1 15 -8 -69 -5 12 -4 38 -36 -7 -11 -5 -368 
18:48:32.069000 -18 -14 6 -21 -82 -23 -6 -19 16 -56 -25 -24 -3 -414 
18:48:32.070000 -38 -22 -2 -25 -93 -25 13 -12 3 -63 -19 -26 -1 -420 
18:48:32.076000 -36 -5 3 3 -68 18 40 28 31 -29 23 7 4 -359 
18:48:32.089000 -24 8 7 28 -68 39 48 44 28 -14 35 31 2 -342 
18:48:32.092000 11 34 28 33 -91 30 49 37 4 -24 37 27 0 -404 
18:48:32.107000 33 41 28 27 -82 28 23 35 25 -19 45 12 0 -407 
18:48:32.107000 5 3 -2 21 -67 29 12 32 44 -12 28 0 -6 -335 
18:48:32.125000 -10 -2 5 34 -63 33 48 27 40 -19 18 -1 2 -325 
18:48:32.125000 8 31 30 46 -59 41 53 31 35 -23 36 4 22 -369 
18:48:32.132000 -2 18 22 45 -69 38 4 36 16 -46 47 9 22 -383 
18:48:32.144000 -33 -6 3 25 -96 23 0 33 -1 -81 27 9 15 -394 
18:48:32.147000 -42 -1 -4 3 -121 8 50 24 2 -65 3 4 19 -401 
18:48:32.162000 -31 -3 -4 9 -127 6 67 21 -7 -33 6 9 23 -409 
18:48:32.163000 -7 11 0 13 -128 5 31 36 -21 -49 29 34 26 -444 
18:48:32.180000 11 39 -1 5 -127 0 0 54 -8 -60 32 54 24 -419 
18:48:32.180000 0 23 -6 7 -121 1 13 47 2 -43 7 46 18 -355 
18:48:32.187000 -23 -7 -5 8 -121 -7 32 30 -2 -52 0 32 21 -369 
18:48:32.199000 -27 -3 -6 -8 -132 -25 5 22 -5 -74 2 27 31 -418 
18:48:32.203000 -35 -3 -14 -15 -146 -33 -10 6 -19 -78 -19 8 23 -419 
18:48:32.218000 -50 -17 -21 1 -138 -25 14 -6 -33 -78 -31 -11 17 -409 
18:48:32.218000 -46 -17 -19 -5 -127 -28 17 6 -25 -93 -24 -10 17 -424 
18:48:32.226000 -29 -8 -10 -26 -127 -37 -1 9 -9 -97 -22 -4 13 -410 
18:48:32.236000 -12 8 -3 -20 -119 -32 3 3 -11 -77 -23 -3 9 -379 
18:48:32.242000 6 16 -3 -7 -103 -29 27 4 -12 -68 -21 -3 5 -379 
18:48:32.255000 8 14 -5 -9 -96 -28 39 2 14 -69 -27 -2 2 -359 
18:48:32.258000 -2 16 -6 -7 -90 -17 36 1 31 -68 -28 5 3 -334 
18:48:32.273000 -1 15 -3 -15 -91 -20 39 2 7 -76 -21 9 5 -398 
18:48:32.274000 -6 5 2 -34 -100 -36 21 5 -9 -75 -19 4 9 -413 
18:48:32.281000 -32 -7 -1 -29 -107 -35 -4 4 6 -56 -25 0 13 -315 
18:48:32.293000 -39 -6 0 -15 -113 -25 28 4 2 -61 -29 4 17 -314 
18:48:32.297000 -15 0 3 -25 -118 -34 71 18 -14 -87 -18 20 24 -387 
18:48:32.312000 -11 2 2 -35 -118 -40 45 28 -3 -90 -13 24 30 -377 
18:48:32.313000 -20 0 4 -30 -113 -33 -1 20 8 -82 -21 7 27 -351 
18:48:32.330000 -14 -2 6 -23 -109 -30 13 19 1 -76 -18 3 27 -371 
18:48:32.331000 -20 -3 -1 -26 -109 -36 45 29 -9 -68 -9 19 26 -383 
18:48:32.337000 -25 9 -6 -21 -109 -28 46 28 -6 -57 -8 25 19 -367 
18:48:32.350000 -6 33 4 11 -86 4 44 33 13 -40 2 27 21 -323 
18:48:32.351000 2 37 5 20 -71 8 60 37 8 -39 7 30 27 -315 
18:48:32.368000 2 29 -2 8 -86 -7 60 31 -12 -41 -6 29 23 -329 
18:48:32.368000 32 42 14 27 -76 13 37 50 20 -28 2 39 30 -285 
18:48:32.376000 38 43 25 36 -58 22 23 54 55 -26 19 35 35 -268 
18:48:32.388000 10 20 9 11 -79 -3 18 13 35 -43 1 9 16 -316 
18:48:32.392000 -5 11 -7 -6 -103 -16 37 -7 17 -53 -24 -8 2 -325 
18:48:32.407000 -5 18 3 -4 -94 -11 48 14 26 -50 -20 -7 15 -304 
18:48:32.407000 18 29 32 15 -70 -4 24 27 35 -33 5 17 37 -304 
18:48:32.415000 40 37 38 28 -66 2 31 26 42 -24 9 29 41 -306 
18:48:32.426000 17 24 9 6 -89 -3 77 28 23 -47 -14 8 31 -314 
18:48:32.431000 -13 4 -11 -8 -99 -5 80 21 4 -60 -22 1 23 -304 
18:48:32.445000 6 33 11 35 -69 19 38 26 38 -33 14 39 27 -283 
18:48:32.446000 43 86 31 75 -55 41 27 55 55 -3 39 72 36 -308 
18:48:32.454000 48 96 25 65 -67 39 53 64 23 -7 23 67 35 -301 
18:48:32.464000 41 73 23 40 -62 22 63 41 22 -17 10 49 30 -232 
18:48:32.470000 38 53 15 17 -68 2 45 25 43 -15 8 32 23 -242 
18:48:32.483000 41 54 4 4 -81 -1 51 31 32 -29 -6 29 24 -296 
18:48:32.485000 39 59 12 0 -70 3 67 37 20 -52 -11 34 33 -278 
18:48:32.501000 33 46 24 -1 -66 -1 40 33 34 -38 -3 33 32 -258 
18:48:32.501000 44 41 25 5 -71 -3 26 26 45 -10 -1 30 28 -267 
18:48:32.519000 51 49 26 7 -61 -4 62 31 39 -16 -4 22 31 -245 
18:48:32.519000 36 39 31 0 -60 -4 64 29 28 -28 -6 3 26 -234 
18:48:32.526000 28 34 35 2 -61 5 30 13 35 -22 1 -5 12 -258 
18:48:32.539000 17 30 20 -6 -70 -7 43 7 19 -46 6 -5 -5 -291 
18:48:32.540000 -8 8 -1 -24 -91 -27 91 24 -4 -67 1 -2 -14 -292 
18:48:32.558000 3 11 13 -7 -77 -9 82 33 17 -42 4 15 8 -258 
18:48:32.558000 35 32 47 10 -50 8 28 17 28 -30 16 22 31 -253 
18:48:32.565000 14 17 35 -16 -78 -20 37 -10 10 -61 -1 -15 12 -284 
18:48:32.577000 -16 3 9 -40 -101 -41 90 -21 16 -73 -33 -39 -9 -295 
18:48:32.580000 7 21 19 -29 -69 -33 102 -12 36 -55 -35 -15 11 -275 
18:48:32.596000 34 32 37 -15 -56 -24 96 -3 31 -48 -19 0 35 -255 
18:48:32.596000 21 39 31 -19 -80 -25 84 -7 18 -51 -19 -18 26 -260 
18:48:32.604000 -22 20 5 -35 -98 -47 41 -14 1 -67 -46 -31 0 -274 
18:48:32.616000 -46 -7 -7 -43 -102 -66 26 -13 -13 -84 -59 -17 1 -288 
18:48:32.619000 -14 19 9 -27 -90 -54 68 2 3 -61 -32 7 37 -313 
18:48:32.634000 -2 24 3 -34 -91 -54 69 -2 -10 -55 -30 -6 27 -320 
18:48:32.635000 -37 -22 -10 -66 -124 -75 27 -22 -43 -106 -72 -39 -17 -289 
18:48:32.652000 -28 -14 12 -45 -119 -50 40 -6 -9 -94 -70 -20 -5 -254 
18:48:32.652000 13 36 20 7 -76 -12 84 32 34 -22 -27 24 30 -238 
18:48:32.660000 1 37 -1 12 -72 -15 71 39 16 -10 -19 19 26 -228 
18:48:32.671000 -21 17 4 -4 -82 -17 29 24 -1 -32 -27 0 19 -233 
18:48:32.674000 -2 25 33 6 -67 -5 34 22 20 -24 -22 9 33 -250 
18:48:32.690000 6 30 29 4 -71 -16 58 21 15 -22 -23 12 38 -247 
18:48:32.691000 -7 26 5 -5 -95 -33 66 8 -21 -26 -28 0 24 -235 
18:48:32.709000 -6 24 -3 0 -98 -24 57 -6 -30 -22 -30 -8 3 -231 
18:48:32.709000 4 30 8 -3 -90 -13 34 -7 7 -35 -31 -13 -4 -230 
18:48:32.715000 8 34 17 -3 -88 -10 35 2 43 -30 -27 -6 11 -208 
18:48:32.728000 6 29 3 -5 -91 -16 61 2 18 -19 -33 -1 20 -212 
18:48:32.729000 15 39 -6 -7 -88 -16 68 4 -12 -28 -36 -2 14 -247 
18:48:32.747000 32 60 18 17 -64 11 59 20 14 -8 -19 13 23 -221 
18:48:32.747000 41 70 38 37 -38 35 46 34 42 29 -2 34 39 -163 
18:48:32.754000 21 57 24 7 -40 16 28 23 36 -2 -6 29 20 -192 
18:48:32.766000 5 35 12 -12 -46 -8 37 11 28 -41 -16 16 0 -240 
18:48:32.769000 25 29 31 17 -32 12 68 22 35 -3 -7 23 21 -204 
18:48:32.785000 33 33 38 22 -29 26 57 37 34 34 7 36 38 -162 
18:48:32.786000 10 26 22 -7 -58 5 35 22 7 -1 -9 30 24 -195 
18:48:32.793000 15 29 19 -11 -77 -11 40 2 -6 -41 -24 16 18 -234 
18:48:32.804000 34 47 31 5 -63 6 29 14 24 -24 8 14 28 -214 
18:48:32.808000 18 44 26 8 -52 29 27 25 45 8 24 7 22 -174 
18:48:32.823000 2 30 14 2 -56 26 64 5 28 9 -3 -8 6 -171 
18:48:32.824000 0 24 17 -1 -66 6 74 -8 12 -10 -13 -15 2 -199 
18:48:32.842000 -2 32 24 11 -69 -5 42 2 21 -15 -1 -9 4 -212 
18:48:32.842000 15 47 29 29 -57 7 32 5 36 4 5 -1 8 -196 
18:48:32.849000 18 44 28 18 -68 8 36 -6 17 8 -2 -5 0 -209 
18:48:32.861000 -5 29 22 -4 -92 -10 24 6 -14 -15 -6 -5 -9 -238 
18:48:32.863000 14 51 30 16 -77 0 37 33 22 -18 17 21 15 -215 
18:48:32.879000 45 80 42 57 -51 39 72 45 70 14 41 46 41 -170 
18:48:32.880000 15 55 27 49 -61 36 54 30 30 17 27 30 14 -182 
18:48:32.898000 -3 34 19 19 -55 2 4 24 2 -14 19 22 1 -207 
18:48:32.898000 31 57 31 28 -34 9 39 49 38 -8 37 43 32 -201 
18:48:32.903000 26 64 28 44 -50 32 103 51 34 13 35 36 37 -195 
18:48:32.916000 2 55 27 37 -53 33 60 39 9 11 30 29 21 -173 
18:48:32.919000 16 61 37 40 -22 37 13 46 26 16 36 47 32 -140 
18:48:32.935000 22 56 33 46 -16 45 40 51 46 30 24 48 39 -146 
18:48:32.935000 8 35 24 25 -40 27 50 37 29 23 11 35 32 -176 
18:48:32.943000 7 25 26 0 -55 -1 37 25 3 -6 6 25 30 -191 
18:48:32.954000 7 26 24 -3 -55 -4 55 29 6 -16 5 23 30 -189 
18:48:32.958000 -3 29 28 3 -46 5 67 29 27 -5 1 19 34 -170 
18:48:32.973000 -15 13 21 -16 -49 -20 56 6 16 -10 -19 2 27 -173 
18:48:32.974000 -12 -4 6 -37 -61 -43 55 -11 -10 -17 -28 0 24 -186 
18:48:32.991000 2 14 17 -15 -45 -13 62 19 15 1 -4 27 42 -159 
18:48:32.991000 -1 29 32 3 -20 7 75 41 36 8 6 34 47 -137 
18:48:32.998000 -17 3 12 -28 -30 -19 56 10 10 -28 -14 8 29 -175 
18:48:33.010000 -13 -15 -4 -48 -59 -38 33 -5 -8 -35 -24 -1 27 -204 
18:48:33.013000 -5 4 10 -32 -63 -30 43 11 -3 -4 -28 9 31 -180 
18:48:33.029000 7 26 28 -13 -39 -14 42 21 13 3 -27 26 30 -149 
18:48:33.029000 28 39 36 3 -21 5 35 29 27 9 -4 38 45 -125 
18:48:33.047000 21 42 28 5 -32 0 55 26 17 26 2 34 46 -134 
18:48:33.048000 2 38 14 -1 -57 -18 69 7 -11 10 -16 31 29 -173 
18:48:33.053000 -11 31 3 -10 -81 -33 42 -2 -31 -33 -33 24 25 -211 
18:48:33.066000 -24 27 4 -29 -96 -49 23 0 -32 -41 -31 11 27 -223 
18:48:33.068000 -17 33 21 -35 -95 -58 31 -4 -13 -16 -23 16 28 -211 
18:48:33.084000 18 44 31 -22 -89 -55 20 2 -1 -19 -22 29 36 -204 
18:48:33.085000 46 61 30 -18 -96 -49 -1 18 -14 -37 -20 31 40 -213 
18:48:33.092000 41 65 24 -13 -98 -34 11 16 -10 -16 -16 24 35 -189 
18:48:33.104000 21 48 10 -11 -92 -27 28 0 0 13 -27 9 26 -145 
18:48:33.108000 19 42 7 -14 -88 -35 15 -2 -8 1 -36 6 23 -139 
18:48:33.124000 32 55 26 0 -74 -19 13 21 13 3 -15 34 42 -144 
18:48:33.124000 30 61 34 10 -57 -1 28 39 30 18 5 51 52 -171 
18:48:33.132000 23 52 31 3 -59 -17 25 38 8 -4 2 40 40 -196 
18:48:33.142000 28 42 29 -4 -77 -32 23 32 -5 -20 -4 38 35 -163 
18:48:33.147000 16 32 17 -19 -94 -40 18 18 -11 -17 -17 27 34 -152 
18:48:33.161000 2 21 5 -33 -99 -55 -5 1 -35 -31 -29 -2 15 -197 
18:48:33.163000 0 16 3 -23 -96 -62 4 -3 -30 -33 -30 -8 9 -202 
18:48:33.180000 2 19 11 -19 -94 -57 40 6 0 -14 -24 0 27 -173 
18:48:33.180000 -2 31 26 -17 -92 -46 33 21 6 -12 -16 8 35 -195 
18:48:33.188000 -20 27 24 -8 -89 -30 -7 26 -4 -28 -4 14 23 -222 
18:48:33.199000 -37 8 1 -13 -94 -29 -9 19 -19 -31 0 10 7 -208 
18:48:33.202000 -36 7 -9 -17 -99 -37 29 18 -35 -23 -4 2 1 -187 
18:48:33.217000 -30 22 2 -3 -91 -20 36 29 -24 -15 3 23 6 -185 
18:48:33.218000 -23 21 0 4 -80 -17 -1 32 -3 -16 3 38 4 -192 
18:48:33.236000 -8 9 -4 -5 -75 -32 -2 25 1 -20 0 18 0 -183 
18:48:33.236000 3 19 2 -7 -66 -19 44 25 -5 -14 8 3 11 -167 
18:48:33.243000 5 27 11 4 -54 -2 38 27 7 1 10 3 27 -150 
18:48:33.255000 1 16 14 4 -55 -8 -8 10 23 -3 -2 -1 29 -147 
18:48:33.259000 0 22 26 2 -58 -5 0 4 16 -10 0 -4 20 -168 
18:48:33.274000 0 35 34 -1 -57 -12 32 14 1 -5 7 0 7 -172 
18:48:33.274000 -10 21 21 -3 -62 -32 28 13 0 -7 1 -1 5 -154 
18:48:33.282000 -4 15 18 0 -62 -18 37 11 4 -15 2 3 20 -154 
18:48:33.293000 16 33 28 1 -53 -2 34 21 3 -6 9 22 29 -155 
18:48:33.298000 15 39 20 7 -56 -11 0 25 1 8 6 26 27 -128 
18:48:33.312000 -1 34 -2 12 -68 -10 6 13 -5 10 1 6 18 -122 
18:48:33.314000 3 41 -3 12 -66 -4 39 13 2 8 -1 -3 5 -141 
18:48:33.330000 24 49 20 10 -60 -2 27 26 27 10 -1 6 14 -128 
18:48:33.330000 27 40 29 3 -59 -8 8 30 32 6 -1 10 28 -112 
18:48:33.337000 10 27 25 -2 -44 -15 24 21 25 6 -2 7 9 -123 
18:48:33.349000 -1 29 26 -2 -26 -10 34 16 30 5 2 5 -3 -124 
18:48:33.353000 -9 26 27 -5 -35 -5 35 13 34 0 3 -7 15 -109 
18:48:33.367000 -17 5 21 -8 -50 -15 31 -6 27 -5 -16 -17 14 -116 
18:48:33.369000 -5 5 27 1 -38 -8 23 4 27 -4 -19 -3 8 -127 
18:48:33.386000 19 34 37 9 -20 10 37 39 40 9 16 22 29 -105 
18:48:33.386000 8 36 26 4 -27 3 62 29 41 5 21 14 31 -76 
18:48:33.392000 -4 18 23 5 -37 -5 40 3 29 1 1 -1 15 -94 
18:48:33.405000 11 20 29 11 -39 -1 2 15 24 13 9 13 18 -145 
18:48:33.408000 16 31 29 9 -30 1 19 28 33 22 19 21 31 -120 
18:48:33.423000 -2 19 24 2 -23 0 42 11 37 2 3 -1 22 -57 
18:48:33.424000 -10 -3 16 -6 -30 -8 25 -2 26 -18 -9 -12 0 -75 
18:48:33.441000 2 6 18 -2 -32 -3 22 4 28 -8 -1 -1 -1 -119 
18:48:33.441000 -2 18 17 0 -29 2 27 2 32 -9 1 -5 3 -113 
18:48:33.448000 -6 12 18 7 -25 5 6 6 26 -10 4 -12 1 -103 
18:48:33.460000 11 23 29 18 -6 15 20 25 45 13 15 -3 10 -98 
18:48:33.463000 21 39 35 9 10 15 55 27 67 23 23 7 16 -79 
18:48:33.479000 17 34 26 -3 -5 2 38 15 36 -1 22 13 1 -100 
18:48:33.479000 18 27 21 10 -12 3 22 23 14 -1 15 23 -2 -112 
18:48:33.487000 12 25 21 25 -6 9 28 26 38 14 4 18 6 -75 
18:48:33.499000 1 24 18 24 -12 14 9 12 47 16 6 8 3 -62 
18:48:33.503000 23 44 29 36 -3 33 7 21 37 88 28 23 9 -82 
18:48:33.518000 37 55 33 34 4 24 34 41 32 184 32 28 14 -98 
18:48:33.519000 -1 26 15 6 -24 -8 14 23 24 180 7 4 0 -99 
18:48:33.526000 -14 15 16 12 -35 14 -27 6 28 155 6 0 2 -91 
18:48:33.538000 14 27 25 27 -17 38 -26 17 32 168 22 12 16 -96 
18:48:33.542000 6 20 10 5 -33 7 7 7 4 149 8 -1 3 -113 
18:48:33.557000 -21 10 0 -7 -54 -16 44 -11 -13 124 -5 -13 -10 -113 
18:48:33.558000 5 28 20 22 -25 18 28 13 24 150 22 13 15 -89 
18:48:33.575000 50 57 44 46 8 51 -25 40 72 168 50 36 34 -65 
18:48:33.575000 49 63 48 43 6 41 -3 30 71 151 45 25 21 -66 
18:48:33.582000 28 50 41 40 -9 27 69 22 32 139 24 14 23 -88 
18:48:33.593000 30 55 33 52 -5 43 62 40 26 141 26 32 30 -90 
18:48:33.597000 37 67 32 62 3 57 16 39 58 150 48 32 6 -62 
18:48:33.612000 26 65 31 56 4 54 6 12 68 158 52 -1 -13 -39 
18:48:33.613000 37 65 35 56 17 65 -1 11 59 166 33 -1 1 -22 
18:48:33.630000 58 64 45 64 29 71 11 24 66 168 28 23 10 -28 
18:48:33.631000 48 58 36 48 15 47 37 14 65 158 33 21 7 -55 
18:48:33.637000 39 60 33 35 -2 29 5 11 52 151 29 12 11 -60 
18:48:33.649000 38 51 32 28 -8 18 -32 16 40 133 13 9 13 -68 
18:48:33.652000 20 24 9 3 -34 -4 -1 -4 28 105 -6 -4 2 -100 
18:48:33.668000 15 21 3 -14 -39 -9 3 -17 26 110 -11 -9 -2 -96 
18:48:33.669000 39 39 31 2 -7 5 -40 0 38 124 -3 5 15 -68 
18:48:33.676000 35 33 29 0 -7 -2 -24 7 32 110 -2 4 22 -86 
18:48:33.688000 -4 5 -5 -33 -39 -28 16 -5 3 88 -17 -8 1 -115 
18:48:33.692000 -13 -2 -7 -30 -44 -32 2 -7 -6 79 -35 -6 -8 -94 
18:48:33.707000 13 20 19 -3 -25 -16 -12 -4 15 82 -26 0 11 -79 
18:48:33.707000 41 38 37 7 -6 3 6 2 37 100 7 1 27 -93 
18:48:33.725000 46 44 36 14 3 10 14 8 45 116 13 2 27 -83 
18:48:33.725000 39 47 31 19 2 1 17 5 45 115 -8 3 24 -60 
18:48:33.731000 36 48 32 13 2 1 32 4 44 118 -8 1 23 -66 
18:48:33.745000 54 58 36 18 10 16 23 20 57 132 16 14 28 -70 
18:48:33.746000 77 71 37 38 10 18 -5 31 69 136 33 31 32 -53 
18:48:33.763000 49 49 29 31 -7 2 1 21 43 120 22 29 29 -66 
18:48:33.763000 6 22 27 7 -16 -1 18 26 16 99 2 27 29 -89 
18:48:33.771000 1 15 32 -8 -5 -6 14 27 30 85 -3 25 31 -82 
18:48:33.782000 8 13 30 -7 -7 -13 35 9 45 81 -1 16 29 -78 
18:48:33.786000 0 13 15 7 -23 -6 52 8 32 80 0 20 30 -89 
18:48:33.801000 -7 17 6 6 -34 -8 -6 16 10 76 -8 33 24 -100 
18:48:33.801000 10 19 14 -7 -33 -17 -38 2 10 78 -15 26 8 -99 
18:48:33.819000 28 32 22 2 -18 0 30 1 25 91 -2 18 -1 -79 
18:48:33.819000 28 43 19 26 -3 15 61 17 31 93 10 15 0 -64 
18:48:33.826000 30 42 21 27 1 4 19 17 30 92 1 12 2 -66 
18:48:33.838000 33 42 30 14 0 3 20 11 30 89 -10 9 2 -68 
18:48:33.841000 29 42 28 18 2 20 35 19 28 87 5 5 0 -56 
18:48:33.856000 35 48 22 29 0 28 -1 26 39 100 18 11 -1 -42 
18:48:33.856000 53 66 27 33 1 31 1 24 52 120 9 21 9 -24 
18:48:33.874000 63 74 31 37 10 33 40 22 45 124 10 26 27 -16 
18:48:33.875000 57 64 34 42 9 29 13 25 38 120 26 35 36 -24 
18:48:33.881000 37 51 25 34 1 16 -21 28 36 115 13 36 24 -34 
18:48:33.893000 17 39 8 17 -3 12 12 22 25 106 -13 24 12 -33 
18:48:33.897000 28 45 9 28 6 29 37 4 30 129 -1 20 21 -7 
18:48:33.912000 51 70 27 52 22 48 25 8 52 168 20 30 29 2 
18:48:33.912000 45 77 32 41 30 47 19 26 52 172 17 30 26 -21 
18:48:33.920000 44 69 30 34 34 51 7 33 49 164 27 34 27 -16 
18:48:33.931000 50 71 35 62 35 67 1 32 62 172 35 38 34 4 
18:48:33.936000 41 61 35 62 27 60 17 23 58 175 11 21 30 -16 
18:48:33.950000 27 44 28 30 24 37 24 6 33 162 0 12 23 -35 
18:48:33.951000 22 34 23 23 15 30 15 9 21 149 9 22 23 -38 
18:48:33.968000 27 38 23 35 9 34 27 29 28 154 9 35 29 -54 
18:48:33.969000 33 50 26 33 7 35 40 33 31 166 11 41 35 -51 
18:48:33.976000 29 46 27 29 5 27 1 17 32 164 17 22 29 -35 
18:48:33.988000 18 30 22 23 15 20 -19 3 34 152 7 -2 20 -56 
18:48:33.990000 27 33 28 23 26 25 25 7 31 144 0 8 27 -69 
18:48:34.006000 34 44 34 23 15 20 58 13 29 139 5 19 36 -53 
18:48:34.006000 13 29 20 4 -7 0 28 1 27 133 -8 -2 19 -59 
18:48:34.024000 11 13 20 -8 3 -7 -16 -9 35 132 -15 -11 2 -68 
18:48:34.024000 22 21 20 -3 18 -5 5 -3 40 129 -11 0 4 -64 
18:48:34.031000 12 26 5 -2 4 -13 37 -4 27 119 -14 -3 5 -79 
18:48:34.043000 10 28 16 -1 0 -8 10 -4 22 117 -5 -2 12 -90 
18:48:34.046000 12 31 26 6 -8 -5 -8 1 22 110 0 3 14 -90 
18:48:34.061000 -7 23 1 0 -30 -14 36 -3 3 100 -10 1 -1 -103 
18:48:34.062000 -11 12 -4 -1 -35 -8 43 0 -10 99 -2 0 -5 -103 
18:48:34.079000 6 16 20 12 -27 3 -3 11 -1 95 9 4 4 -93 
18:48:34.079000 6 27 22 13 -28 4 3 13 7 87 6 11 3 -100 
18:48:34.086000 1 29 21 -4 -23 0 38 10 7 84 9 8 -1 -90 
18:48:34.098000 7 31 29 -2 -6 2 36 10 11 96 12 -3 3 -61 
18:48:34.101000 6 29 26 16 -4 9 22 7 18 104 2 -3 0 -59 
18:48:34.117000 9 23 27 18 -3 14 27 6 37 104 0 5 -4 -61 
18:48:34.117000 3 20 23 2 2 7 38 5 41 94 0 2 -4 -49 
18:48:34.135000 -21 10 8 -3 -7 3 34 -3 12 73 -4 -6 -4 -58 
18:48:34.135000 -30 2 2 4 -21 6 19 0 -1 62 3 -1 -7 -83 
18:48:34.141000 -32 -5 0 -6 -32 -19 8 2 -1 53 -3 -2 -11 -95 
18:48:34.154000 -42 -18 -7 -34 -39 -49 0 -14 -14 30 -19 -15 -10 -99 
18:48:34.156000 -37 -17 -3 -35 -34 -43 -6 -13 -11 22 -15 -10 -1 -91 
18:48:34.173000 -23 -3 7 -10 -23 -23 21 9 7 37 0 6 7 -80 
18:48:34.173000 -33 -7 -2 -15 -32 -32 44 0 -2 32 -7 -9 1 -86 
18:48:34.181000 -35 -11 -3 -23 -40 -35 18 -21 -10 32 -15 -25 -1 -87 
18:48:34.192000 -5 19 20 3 -16 -12 0 -8 12 63 -1 -5 12 -68 
18:48:34.195000 12 36 22 11 -4 -10 23 1 13 71 5 9 12 -54 
18:48:34.210000 5 27 0 2 -23 -24 41 -8 -4 63 1 -3 2 -52 
18:48:34.211000 6 25 -3 13 -30 -22 20 -3 3 72 1 1 -3 -52 
18:48:34.228000 2 23 -3 3 -33 -28 5 -9 4 63 -15 2 -11 -68 
18:48:34.228000 2 24 1 -12 -37 -37 5 -22 -4 51 -21 -8 -9 -67 
18:48:34.236000 29 47 23 19 -23 -14 1 7 9 72 8 15 13 -41 
18:48:34.248000 33 55 19 29 -20 -2 15 25 17 71 20 35 16 -49 
18:48:34.250000 1 31 -5 -2 -42 -24 26 -4 1 34 -3 16 -3 -85 
18:48:34.267000 -6 27 11 -6 -39 -31 8 7 -2 27 -8 18 4 -91 
18:48:34.267000 9 37 31 3 -29 -24 2 37 7 37 5 38 23 -86 
18:48:34.275000 -2 20 13 3 -52 -33 21 11 2 22 -1 19 17 -106 
18:48:34.286000 -24 -3 -4 -9 -71 -46 5 -18 -18 4 -11 -10 0 -127 
18:48:34.290000 -30 -5 3 -23 -62 -40 -10 0 -32 9 -2 -2 -4 -120 
18:48:34.305000 -25 2 4 -17 -53 -33 12 8 -22 18 6 7 -4 -117 
18:48:34.306000 -16 12 -1 2 -51 -35 29 0 -2 18 1 2 -8 -125 
18:48:34.323000 -8 18 -2 -4 -41 -33 31 11 1 18 5 5 -13 -115 
18:48:34.323000 -2 20 11 -8 -30 -11 15 26 9 31 25 20 -7 -88 
18:48:34.330000 14 37 36 16 -19 10 10 38 26 51 39 28 17 -76 
18:48:34.342000 9 32 31 1 -30 -19 23 29 14 29 22 11 19 -98 
18:48:34.345000 -22 -2 1 -27 -49 -48 14 2 -9 -8 -3 -13 -4 -124 
18:48:34.361000 -17 1 15 -2 -31 -14 5 11 4 7 11 1 11 -108 
18:48:34.361000 5 25 34 19 -8 11 31 41 21 29 44 32 33 -87 
18:48:34.379000 -16 7 8 3 -32 -19 32 35 -3 5 35 29 11 -110 
18:48:34.380000 -41 -14 -14 -18 -65 -42 -2 4 -32 -22 -1 -8 -15 -143 
18:48:34.384000 -22 4 -2 -19 -51 -35 1 -5 -17 -19 3 -29 -8 -142 
18:48:34.399000 3 29 18 4 -15 -15 13 9 21 4 29 -8 5 -105 
18:48:34.400000 23 47 33 39 7 17 -4 34 43 31 38 22 12 -71 
18:48:34.417000 26 47 27 33 -9 23 3 33 25 33 27 13 2 -91 
18:48:34.417000 4 30 7 5 -30 -8 37 5 -1 15 19 -10 -11 -120 
18:48:34.425000 0 35 7 6 -18 -9 32 -1 12 17 26 0 -3 -101 
18:48:34.435000 9 41 10 9 -16 -2 12 7 19 10 16 12 6 -101 
18:48:34.441000 -1 28 1 -1 -36 -27 20 1 -4 -8 -6 4 4 -131 
18:48:34.455000 -8 28 1 -3 -30 -35 7 -2 -1 0 3 5 3 -118 
18:48:34.455000 15 48 13 12 -4 -13 -8 10 31 16 29 22 2 -87 
18:48:34.473000 40 64 26 31 8 5 11 16 54 24 24 34 3 -83 
18:48:34.473000 32 55 28 21 -2 -7 19 8 52 17 1 21 5 -100 
18:48:34.480000 6 33 20 2 -25 -28 22 -4 32 6 -1 -1 -2 -114 
18:48:34.492000 6 33 15 4 -28 -27 25 -5 17 5 10 -1 -11 -125 
18:48:34.495000 32 54 25 18 -3 -7 18 13 26 17 25 22 10 -116 
18:48:34.511000 45 63 40 31 14 4 24 24 39 26 33 40 37 -89 
18:48:34.511000 37 55 28 26 -7 -8 25 7 40 18 14 25 20 -80 
18:48:34.519000 23 43 4 5 -34 -20 10 -16 22 2 -7 -6 -3 -102 
18:48:34.530000 25 46 11 7 -20 -15 19 -8 20 6 11 5 17 -102 
18:48:34.534000 47 57 33 29 0 7 35 21 47 22 29 34 43 -78 
18:48:34.550000 60 58 33 36 -5 21 15 34 49 24 30 33 39 -87 
18:48:34.550000 63 65 22 44 9 35 12 29 38 31 43 35 30 -91 
18:48:34.568000 82 89 25 69 60 76 32 29 54 66 53 60 31 -41 
18:48:34.568000 91 103 29 83 111 132 26 39 65 101 49 67 31 11 
18:48:34.574000 95 109 28 91 175 194 12 40 73 147 50 56 32 63 
18:48:34.588000 120 134 33 113 264 258 18 33 101 216 56 53 32 167 
18:48:34.589000 149 163 45 141 342 319 32 41 121 279 58 59 32 256 
18:48:34.606000 163 186 55 158 412 362 38 59 141 322 65 79 37 284 
18:48:34.606000 178 209 54 149 459 378 41 61 161 338 71 90 40 329 
18:48:34.613000 189 209 57 140 460 365 28 42 133 347 55 66 27 381 
18:48:34.624000 173 180 50 142 445 340 4 18 121 357 31 35 5 374 
18:48:34.629000 150 169 35 148 449 337 2 16 177 371 24 29 7 381 
18:48:34.644000 153 177 46 150 459 342 11 22 207 379 33 38 28 429 
18:48:34.644000 160 167 63 129 425 318 31 12 155 362 30 34 34 405 
18:48:34.662000 152 153 58 111 378 306 59 8 140 338 20 25 28 350 
18:48:34.662000 158 166 61 115 356 324 43 24 165 317 31 32 37 313 
18:48:34.669000 159 161 58 111 330 303 23 32 127 293 40 42 31 259 
18:48:34.681000 109 118 30 77 273 249 44 25 82 244 31 29 4 229 
18:48:34.684000 88 103 31 46 173 212 41 23 82 146 24 17 10 173 
18:48:34.701000 122 125 64 61 120 195 29 28 102 99 35 32 37 93 
18:48:34.701000 102 106 60 86 162 187 42 32 122 149 44 45 41 106 
18:48:34.707000 41 58 33 65 171 153 35 23 111 151 25 28 26 139 
18:48:34.720000 26 46 19 20 89 82 37 -2 58 63 -3 -2 9 77 
18:48:34.723000 27 49 15 2 36 35 72 -6 24 31 -4 -1 6 8 
18:48:34.739000 15 31 15 -7 30 8 52 5 9 48 11 17 19 -21 
18:48:34.740000 14 19 10 -18 -5 -31 -9 2 -15 19 9 10 14 -26 
18:48:34.757000 20 35 3 0 -16 -40 -7 10 14 -8 16 11 -2 26 
18:48:34.757000 17 46 10 11 -6 -38 25 26 35 -17 35 30 1 31 
18:48:34.764000 16 41 22 7 -22 -49 35 23 -5 -26 35 22 5 -23 
18:48:34.776000 21 40 22 12 -27 -44 31 21 -7 -23 41 12 0 -20 
18:48:34.779000 24 47 24 9 -35 -49 27 34 23 -37 55 26 -3 -30 
18:48:34.794000 5 33 23 -1 -55 -65 30 32 3 -55 46 29 0 -52 
18:48:34.795000 -16 13 13 -1 -67 -66 9 13 -34 -59 32 10 20 -36 
18:48:34.813000 -27 6 1 -15 -84 -92 -23 0 -41 -101 17 2 29 -55 
18:48:34.814000 -37 2 -4 -43 -113 -138 -23 7 -47 -151 -2 10 16 -100 
18:48:34.819000 -19 4 7 -41 -142 -134 -3 28 -80 -127 12 28 21 -117 
18:48:34.833000 0 12 11 -26 -136 -109 10 25 -69 -75 25 36 35 -96 
18:48:34.835000 -17 15 0 -36 -108 -119 25 1 -17 -95 4 25 24 -66 
18:48:34.852000 -21 13 -2 -38 -104 -138 29 1 -19 -129 3 25 19 -61 
18:48:34.852000 -6 8 15 -32 -111 -133 9 24 -39 -110 29 35 38 -70 
18:48:34.858000 -19 0 14 -30 -90 -118 -3 27 -11 -86 32 34 28 -36 
18:48:34.871000 -32 1 -5 -19 -83 -119 -5 12 -3 -85 20 20 -7 -21 
18:48:34.874000 -5 22 9 -5 -102 -122 1 21 -36 -80 21 21 2 -55 
18:48:34.889000 12 39 36 7 -93 -116 33 33 -20 -64 31 36 38 -44 
18:48:34.890000 -8 31 23 -3 -102 -122 37 10 -28 -75 22 32 26 -49 
18:48:34.907000 -20 7 8 -27 -132 -121 -1 -1 -65 -83 8 26 -3 -72 
18:48:34.907000 -12 0 21 -31 -113 -101 0 24 -33 -71 27 32 18 -43 
18:48:34.913000 -17 -1 19 -23 -101 -106 30 19 -11 -83 36 16 31 -38 
18:48:34.926000 -28 -12 2 -32 -123 -133 35 -13 -38 -108 4 -12 5 -73 
18:48:34.929000 -9 -5 5 -38 -124 -132 27 -10 -32 -110 -7 -3 -3 -75 
18:48:34.944000 1 10 5 -30 -115 -123 8 -9 -16 -112 1 2 1 -71 
18:48:34.945000 -20 1 -2 -31 -122 -129 -3 -32 -43 -119 -6 -24 -9 -90 
18:48:34.962000 -18 -7 7 -34 -112 -121 8 -26 -49 -99 -6 -26 -11 -78 
18:48:34.963000 3 2 12 -32 -102 -107 7 -5 -20 -87 8 7 3 -82 
18:48:34.969000 -19 -15 -3 -48 -115 -121 3 -16 -21 -114 0 4 1 -104 
18:48:34.982000 -56 -44 -8 -60 -120 -136 28 -27 -45 -128 -19 -23 -3 -88 
18:48:34.983000 -58 -49 -5 -58 -127 -132 37 -26 -71 -126 -30 -24 -2 -86 
18:48:35.000000 -39 -36 -7 -44 -132 -128 28 -26 -66 -129 -26 -9 -4 -104 
18:48:35.001000 -15 -1 10 -15 -110 -113 18 1 -21 -116 4 13 12 -84 
18:48:35.008000 12 31 30 4 -83 -83 3 33 14 -87 31 33 40 -43 
18:48:35.019000 5 18 11 -16 -88 -91 23 14 -4 -99 15 16 32 -55 
18:48:35.023000 -35 -11 -18 -40 -113 -119 44 -14 -45 -132 -17 -9 3 -91 
18:48:35.038000 -50 -17 -16 -37 -126 -121 12 -10 -57 -138 -18 -8 -3 -101 
18:48:35.039000 -33 -15 -3 -35 -118 -112 -2 -2 -40 -126 1 3 2 -93 
18:48:35.056000 -27 -8 2 -35 -102 -101 7 9 -35 -118 10 8 2 -96 
18:48:35.056000 -29 2 1 -26 -116 -97 -1 22 -51 -128 7 12 -1 -113 
18:48:35.063000 -35 -11 -9 -30 -152 -122 16 5 -74 -152 -2 -1 -12 -126 
18:48:35.074000 -39 -14 -6 -35 -154 -134 19 -7 -76 -145 1 3 -7 -122 
18:48:35.079000 -26 10 3 -31 -124 -111 -21 19 -46 -114 24 28 11 -104 
18:48:35.093000 -22 5 1 -32 -113 -114 0 22 -26 -121 23 24 8 -88 
18:48:35.094000 -35 -21 -2 -34 -112 -129 49 12 -33 -134 5 13 0 -89 
18:48:35.112000 -37 -24 -1 -29 -97 -109 23 30 -31 -116 6 28 6 -92 
18:48:35.112000 -34 -16 1 -27 -87 -92 6 31 -22 -106 18 38 6 -90 
18:48:35.118000 -42 -17 5 -31 -94 -101 42 6 -32 -115 18 32 10 -98 
18:48:35.132000 -35 -8 12 -25 -89 -101 42 4 -29 -109 14 24 22 -94 
18:48:35.133000 -20 -2 17 -20 -80 -88 14 11 -18 -102 9 13 15 -76 
18:48:35.151000 -31 -21 10 -32 -96 -104 -1 -14 -42 -120 -9 -8 -4 -83 
18:48:35.151000 -41 -28 -2 -42 -108 -115 0 -23 -50 -122 -2 -9 -10 -86 
18:48:35.158000 -26 1 1 -26 -88 -88 26 5 -27 -90 28 20 4 -71 
18:48:35.169000 -23 5 5 -22 -92 -85 48 10 -44 -84 18 25 7 -73 
18:48:35.173000 -38 -13 -7 -38 -122 -109 25 -9 -67 -108 -7 5 -5 -81 
18:48:35.188000 -19 9 -5 -18 -104 -89 16 9 -32 -90 17 22 7 -51 
18:48:35.188000 6 33 8 5 -76 -61 35 34 -12 -62 41 47 20 -32 
18:48:35.206000 3 13 -1 -14 -95 -88 17 10 -45 -89 12 21 0 -57 
18:48:35.206000 5 9 -5 -26 -104 -105 -12 -10 -48 -108 -7 5 -4 -70 
18:48:35.213000 20 36 8 -13 -82 -86 -13 9 -17 -89 5 33 31 -48 
18:48:35.225000 12 33 9 -17 -81 -84 6 8 -23 -87 5 34 32 -49 
18:48:35.229000 -13 2 -9 -39 -102 -103 39 -25 -61 -100 -6 -4 -4 -94 
18:48:35.243000 -16 -5 -6 -44 -94 -105 40 -28 -55 -86 -8 -17 -2 -90 
18:48:35.244000 7 21 17 -20 -58 -83 3 3 -7 -56 5 18 31 -27 
18:48:35.261000 18 37 18 -1 -54 -71 11 14 3 -49 12 38 31 -16 
18:48:35.261000 -2 10 0 -22 -87 -87 47 -7 -33 -66 -7 4 -1 -66 
18:48:35.268000 -12 -4 -6 -32 -87 -89 35 -16 -42 -65 -21 -16 -13 -84 
18:48:35.280000 5 22 12 -2 -61 -60 12 7 -16 -40 2 15 7 -64 
18:48:35.284000 7 35 25 10 -61 -41 22 31 -16 -28 24 40 28 -64 
18:48:35.299000 -6 18 23 -3 -66 -48 42 34 -37 -36 25 39 29 -68 
18:48:35.300000 -10 8 9 -7 -61 -52 32 27 -38 -41 24 36 16 -63 
18:48:35.307000 -4 19 3 4 -55 -36 21 33 -19 -32 31 37 21 -60 
18:48:35.318000 3 29 18 13 -43 -19 51 34 -8 -24 25 43 32 -58 
18:48:35.323000 3 27 31 19 -32 -2 47 32 -6 -23 21 49 30 -44 
18:48:35.337000 13 32 35 28 -32 24 -1 47 -1 -12 47 58 27 -31 
18:48:35.338000 28 46 22 36 -25 44 20 51 -4 -5 59 61 21 -34 
18:48:35.355000 22 41 4 23 -30 37 75 34 -19 -18 36 46 6 -46 
18:48:35.355000 -3 20 -6 -10 -59 19 43 19 -38 -39 20 17 -12 -73 
18:48:35.362000 3 26 -6 -3 -58 21 15 22 -30 -28 29 9 -23 -68 
18:48:35.374000 39 55 11 47 -13 56 55 38 2 7 47 27 -3 -20 
18:48:35.378000 53 69 33 58 2 69 45 31 20 20 49 31 30 3 
18:48:35.393000 30 53 24 19 -26 38 10 3 2 0 23 19 22 -29 
18:48:35.393000 8 36 0 3 -36 23 19 1 -26 -10 12 19 0 -61 
18:48:35.411000 -3 24 0 11 -32 29 31 16 -28 -8 22 26 11 -59 
18:48:35.411000 -1 25 14 17 -33 26 27 16 -7 -18 21 22 23 -38 
18:48:35.418000 26 48 26 37 -16 46 38 26 0 -15 32 26 19 -24 
18:48:35.430000 49 73 26 55 -4 64 44 41 -6 -6 50 38 26 -40 
18:48:35.432000 40 64 10 36 -22 40 23 35 1 -23 36 40 30 -59 
18:48:35.449000 10 34 -2 5 -37 16 17 25 -6 -50 20 26 9 -66 
18:48:35.449000 -1 25 -1 -1 -34 23 16 27 -32 -50 28 10 -10 -73 
18:48:35.457000 10 31 0 4 -30 31 9 20 -38 -34 32 4 -3 -82 
18:48:35.467000 10 29 -6 -5 -39 22 21 5 -30 -35 23 2 -2 -79 
18:48:35.473000 9 36 -3 2 -33 22 51 9 -17 -29 26 6 -5 -50 
18:48:35.486000 41 61 20 35 -4 50 61 33 -1 0 36 37 17 -21 
18:48:35.488000 63 75 24 46 -1 63 41 48 -3 7 39 59 28 -32 
18:48:35.504000 37 65 2 23 -30 37 23 26 -17 -23 31 39 11 -52 
18:48:35.504000 24 49 6 13 -35 20 19 3 -12 -35 25 20 9 -45 
18:48:35.512000 39 41 25 16 -20 21 29 13 5 -23 30 28 27 -44 
18:48:35.522000 36 48 21 7 -27 6 35 29 2 -29 25 32 30 -57 
18:48:35.528000 31 65 23 0 -28 -2 25 31 -20 -37 16 34 30 -59 
18:48:35.542000 25 56 24 5 -31 4 18 29 -34 -42 10 33 21 -62 
18:48:35.543000 10 32 3 8 -48 3 25 30 -26 -48 9 32 5 -68 
18:48:35.561000 3 24 -8 -1 -47 -4 33 19 -22 -52 8 35 11 -69 
18:48:35.561000 9 16 0 -13 -40 -5 26 1 -30 -54 -2 21 12 -75 
18:48:35.567000 16 14 4 -13 -37 -2 23 4 -34 -49 -5 10 2 -80 
18:48:35.580000 13 30 3 -3 -37 0 41 25 -30 -44 0 32 7 -73 
18:48:35.582000 17 40 13 12 -29 15 50 34 -10 -41 14 50 28 -63 
18:48:35.599000 32 33 26 24 -21 30 25 20 6 -41 19 36 26 -59 
18:48:35.600000 33 26 25 10 -20 21 23 7 1 -44 15 19 6 -66 
18:48:35.607000 27 30 24 2 -6 17 51 14 13 -43 23 22 13 -62 
18:48:35.619000 34 33 29 18 2 25 37 26 29 -36 30 25 33 -53 
18:48:35.622000 38 28 25 17 -17 14 9 24 7 -38 15 14 26 -65 
18:48:35.637000 14 18 7 -5 -38 -4 24 10 -6 -55 -9 2 6 -91 
18:48:35.637000 -2 10 0 -13 -31 -11 38 10 8 -66 -3 3 15 -93 
18:48:35.655000 -3 3 16 -7 -39 -8 21 22 -6 -69 26 20 36 -84 
18:48:35.655000 -14 -7 24 -2 -65 -11 15 26 -32 -80 25 30 40 -110 
18:48:35.662000 -30 -5 7 0 -67 -18 37 26 -29 -90 3 30 30 -132 
18:48:35.673000 -39 -6 -6 -9 -64 -17 26 22 -28 -86 5 30 26 -112 
18:48:35.677000 -29 -16 5 -4 -50 2 -5 15 -30 -78 20 24 28 -83 
18:48:35.692000 -23 -20 6 4 -34 5 2 9 -19 -81 7 9 10 -93 
18:48:35.692000 -26 -7 -3 -6 -32 -5 29 9 -7 -79 -2 -1 -7 -105 
18:48:35.710000 -18 8 1 -5 -23 2 27 9 6 -65 12 3 -1 -81 
18:48:35.710000 -19 0 6 5 -15 4 18 0 14 -66 11 0 5 -75 
18:48:35.716000 -35 -16 4 -6 -33 -6 26 -2 0 -80 -4 -10 0 -97 
18:48:35.729000 -26 -9 1 -10 -35 -5 28 6 -14 -71 -4 -9 -2 -102 
18:48:35.732000 4 15 6 19 -15 13 22 6 -5 -46 17 6 8 -79 
18:48:35.747000 12 24 25 34 -22 29 24 4 8 -38 25 29 29 -70 
18:48:35.748000 4 16 28 16 -22 29 30 8 10 -41 5 31 32 -82 
18:48:35.756000 5 14 9 2 -12 15 33 6 -1 -44 -3 9 7 -94 
18:48:35.767000 3 7 5 -1 -28 0 26 -5 -6 -63 0 -10 -7 -95 
18:48:35.771000 -3 0 25 1 -20 8 25 -6 16 -69 -1 -9 6 -72 
18:48:35.787000 -13 5 31 5 3 21 26 -2 24 -53 -1 -3 13 -65 
18:48:35.787000 -28 0 18 -7 -19 6 15 -7 -3 -65 -5 -14 -1 -90 
18:48:35.804000 -32 -9 10 -14 -29 -8 13 -5 -9 -85 -7 -28 -8 -99 
18:48:35.804000 -25 -2 9 -1 -1 9 30 -1 3 -74 2 -28 0 -84 
18:48:35.811000 -34 -6 2 -10 -15 6 38 -12 -15 -71 -16 -32 -3 -90 
18:48:35.822000 -51 -21 -6 -27 -38 -11 27 -21 -33 -79 -41 -42 -9 -100 
18:48:35.827000 -34 -4 11 2 -12 13 29 2 -3 -58 0 -23 2 -82 
18:48:35.841000 -13 17 30 29 12 40 38 22 25 -41 46 1 9 -66 
18:48:35.842000 -25 9 26 11 2 35 37 8 10 -54 26 -14 2 -69 
18:48:35.859000 -30 -5 11 -7 -9 18 36 -2 -8 -65 -6 -33 -3 -74 
18:48:35.859000 -9 -4 7 0 -9 10 36 -5 -5 -61 -3 -30 -4 -69 
18:48:35.866000 3 13 14 2 -3 11 42 -12 2 -45 3 -26 -4 -61 
18:48:35.877000 2 22 13 -5 -9 7 26 -13 3 -40 -7 -30 1 -64 
18:48:35.882000 -2 17 0 -8 -25 -6 6 -9 -4 -53 -17 -32 -2 -72 
18:48:35.897000 -4 22 1 -2 -18 8 34 0 -7 -48 -8 -19 1 -75 
18:48:35.898000 1 36 11 12 -6 34 67 5 0 -31 12 -3 17 -73 
18:48:35.915000 0 38 16 28 -12 35 39 2 0 -33 20 -2 25 -69 
18:48:35.916000 2 45 23 45 -11 45 19 12 -4 -28 26 0 30 -58 
18:48:35.921000 19 60 31 54 4 67 42 28 10 -8 29 12 31 -45 
18:48:35.933000 18 62 25 44 7 60 45 17 23 -15 8 8 14 -49 
18:48:35.937000 2 51 26 33 1 45 43 9 19 -35 5 7 10 -66 
18:48:35.952000 6 41 33 33 3 50 45 27 24 -31 36 29 28 -61 
18:48:35.953000 8 35 28 32 8 47 31 26 29 -20 34 20 17 -42 
18:48:35.960000 1 35 27 30 9 36 26 0 13 -20 6 -21 -2 -49 
18:48:35.971000 4 28 24 24 7 36 26 -23 -7 -19 1 -38 12 -60 
18:48:35.976000 5 11 7 5 2 21 32 -32 0 -23 -13 -36 16 -56 
18:48:35.990000 -12 7 -2 -11 -10 -2 51 -41 14 -41 -43 -48 -4 -64 
18:48:35.992000 2 29 26 -1 2 13 67 -30 17 -30 -26 -32 6 -59 
18:48:36.009000 23 41 37 6 19 34 59 -5 18 -10 6 -8 21 -46 
18:48:36.009000 2 24 6 -11 0 17 31 -6 21 -29 -1 -21 -2 -59 
18:48:36.016000 9 31 12 9 14 29 27 0 37 -28 1 -15 -12 -50 
18:48:36.027000 61 63 58 61 64 70 58 31 68 11 37 28 12 -6 
18:48:36.031000 63 53 59 44 56 57 74 27 70 1 40 25 14 -11 
18:48:36.047000 19 25 29 -4 17 15 68 -13 40 -37 1 -22 -3 -49 
18:48:36.047000 19 29 25 10 24 17 52 -29 25 -35 -15 -29 -8 -39 
18:48:36.065000 32 37 34 25 32 29 37 -24 34 -25 0 -6 2 -23 
18:48:36.065000 13 31 34 3 13 14 42 -18 36 -33 1 5 14 -46 
18:48:36.071000 0 21 29 -14 4 0 45 -23 19 -47 -7 -11 14 -64 
18:48:36.084000 -8 -2 12 -27 -2 -5 36 -33 -1 -66 -5 -34 -3 -64 
18:48:36.086000 -21 -28 1 -29 0 -3 41 -15 1 -70 0 -19 -4 -62 
18:48:36.103000 -31 -36 2 -18 4 -6 48 -2 5 -65 -5 -1 6 -79 
