 sampling:128, subject:ERIK                                                                            , labels:COUNTER INTERPOLATED AF3 F7 F3 FC5 T7 P7 O1 O2 P8 T8 FC6 F4 F8 AF4 RAW_CQ GYROX GYROY MARKER MARKER_HARDWARE SYNC TIME_STAMP_s TIME_STAMP_ms CQ_AF3 CQ_F7 CQ_F3 CQ_FC5 CQ_T7 CQ_P7 CQ_O1 CQ_O2 CQ_P8 CQ_T8 CQ_FC6 CQ_F4 CQ_F8 CQ_AF4 CQ_CMS CQ_DRL, chan:40, units:emotiv,,,,,,,,,
4134.871582,4111.281738,4194.871582,4198.461426,4178.974121,4195.384277,4192.820313,4198.974121,4164.615234,4170.769043,4190.256348,4091.281982,4165.12793,4195.384277
4132.307617,4109.230469,4199.487305,4197.436035,4176.410156,4199.487305,4197.94873,4195.897461,4165.641113,4171.794922,4192.307617,4091.794678,4161.538574,4197.94873
4126.666504,4115.897461,4194.358887,4194.358887,4181.025391,4196.922852,4198.461426,4194.358887,4167.692383,4166.666504,4189.230469,4094.871582,4159.487305,4200
4121.538574,4097.436035,4196.922852,4196.410156,4181.025391,4196.922852,4198.974121,4196.410156,4162.563965,4154.871582,4186.666504,4092.307617,4161.025391,4199.487305
4128.717773,4109.230469,4192.307617,4196.922852,4177.94873,4194.871582,4194.871582,4195.384277,4165.641113,4156.410156,4189.743652,4088.717773,4165.641113,4198.974121
4128.717773,4122.05127,4195.384277,4200.512695,4178.461426,4197.94873,4195.384277,4193.333008,4168.205078,4160,4188.717773,4089.743408,4163.589844,4198.461426
4128.717773,4117.436035,4196.922852,4197.94873,4183.07666,4195.897461,4193.333008,4193.846191,4171.794922,4168.205078,4186.666504,4090.769043,4167.179199,4194.871582
4128.205078,4103.589844,4196.410156,4196.410156,4181.025391,4192.820313,4195.897461,4196.922852,4168.205078,4167.692383,4187.179199,4092.820313,4169.230469,4194.871582
4136.922852,4122.563965,4194.358887,4197.436035,4178.974121,4192.820313,4196.410156,4196.922852,4166.666504,4170.256348,4189.743652,4094.871582,4164.615234,4197.436035
4144.102539,4130.256348,4198.974121,4198.461426,4177.94873,4195.897461,4194.871582,4195.897461,4172.820313,4179.487305,4191.794922,4095.384521,4165.641113,4200.512695
4135.384277,4117.94873,4199.487305,4197.94873,4177.436035,4194.871582,4194.358887,4196.410156,4178.461426,4180.512695,4190.256348,4094.358887,4173.333008,4201.025391
4128.205078,4122.05127,4195.897461,4196.922852,4181.538574,4194.871582,4195.384277,4196.410156,4178.461426,4181.025391,4188.717773,4091.794678,4176.922852,4197.436035
4140,4134.358887,4196.922852,4198.974121,4184.102539,4200,4196.410156,4196.922852,4183.07666,4188.717773,4192.820313,4087.692139,4178.461426,4193.333008
4147.179199,4142.05127,4193.333008,4198.461426,4183.589844,4197.436035,4195.384277,4198.974121,4190.256348,4191.281738,4195.384277,4088.717773,4180.512695,4196.922852
4142.05127,4135.897461,4197.436035,4198.461426,4182.05127,4195.384277,4197.436035,4197.436035,4181.025391,4178.974121,4189.743652,4089.743408,4169.230469,4196.922852
4142.05127,4134.871582,4198.974121,4195.897461,4181.025391,4197.94873,4196.922852,4194.358887,4177.436035,4180,4187.179199,4090.769043,4168.717773,4191.794922
4133.333008,4122.563965,4197.94873,4197.436035,4175.897461,4200,4198.461426,4197.436035,4177.436035,4175.897461,4186.666504,4087.692139,4175.897461,4192.820313
4127.179199,4134.358887,4192.307617,4195.384277,4177.94873,4194.358887,4194.871582,4199.487305,4178.461426,4176.410156,4186.666504,4086.666504,4177.436035,4200
4128.205078,4135.384277,4197.94873,4196.922852,4177.94873,4196.410156,4197.94873,4195.897461,4177.436035,4183.07666,4186.153809,4088.205078,4170.256348,4198.461426
4130.256348,4133.846191,4193.846191,4195.384277,4178.461426,4197.436035,4197.436035,4195.897461,4184.615234,4191.281738,4188.717773,4088.717773,4177.94873,4194.871582
4130.256348,4132.820313,4195.897461,4197.94873,4179.487305,4197.94873,4198.974121,4200,4179.487305,4181.025391,4190.769043,4087.692139,4181.025391,4196.410156
4142.563965,4157.436035,4196.410156,4195.897461,4186.153809,4194.871582,4196.410156,4198.461426,4182.05127,4187.179199,4191.281738,4087.179443,4180.512695,4197.436035
4140.512695,4144.615234,4202.05127,4197.94873,4183.07666,4197.436035,4197.94873,4197.94873,4184.102539,4188.205078,4185.641113,4090.769043,4174.871582,4195.384277
4132.307617,4124.615234,4197.436035,4196.922852,4177.436035,4195.384277,4196.410156,4198.974121,4181.025391,4184.615234,4186.153809,4092.820313,4173.846191,4195.384277
4126.666504,4112.307617,4200,4197.94873,4177.436035,4197.436035,4198.461426,4196.922852,4174.871582,4179.487305,4191.281738,4088.205078,4176.922852,4196.410156
4120,4116.410156,4197.94873,4193.846191,4175.897461,4197.94873,4195.384277,4194.871582,4176.410156,4174.358887,4189.743652,4084.615234,4175.897461,4193.333008
4097.94873,4085.128174,4195.384277,4193.846191,4163.589844,4197.94873,4193.846191,4196.410156,4163.589844,4150.256348,4184.102539,4086.153809,4162.05127,4192.820313
4083.5896,4055.384521,4194.871582,4196.410156,4154.358887,4194.871582,4195.897461,4194.358887,4148.717773,4132.820313,4184.615234,4086.666504,4153.846191,4194.871582
4086.666504,4058.974365,4198.461426,4196.410156,4156.922852,4194.358887,4198.974121,4193.846191,4152.307617,4143.589844,4190.256348,4084.615234,4158.974121,4195.897461
4097.436035,4066.153809,4198.461426,4195.897461,4158.974121,4196.410156,4194.871582,4196.922852,4156.410156,4157.94873,4191.794922,4084.102539,4157.94873,4194.871582
4098.974121,4060.512695,4194.871582,4196.410156,4158.461426,4192.820313,4191.281738,4196.922852,4151.281738,4151.794922,4188.717773,4086.153809,4154.871582,4196.410156
4095.384521,4059.487061,4197.436035,4197.436035,4159.487305,4192.820313,4197.436035,4194.871582,4147.692383,4140,4186.666504,4086.153809,4159.487305,4197.436035
4103.589844,4080.512695,4197.94873,4193.846191,4163.589844,4193.333008,4198.974121,4196.922852,4158.461426,4160.512695,4190.256348,4084.615234,4167.179199,4196.922852
4115.897461,4091.281982,4198.974121,4196.922852,4167.692383,4194.871582,4197.436035,4197.436035,4164.615234,4175.897461,4190.769043,4083.5896,4164.102539,4196.922852
4123.07666,4107.692383,4193.333008,4196.922852,4172.820313,4192.820313,4194.871582,4195.384277,4166.666504,4172.307617,4189.743652,4085.640869,4166.666504,4198.461426
4117.94873,4110.769043,4197.94873,4197.94873,4173.846191,4195.897461,4200,4196.922852,4164.102539,4164.615234,4187.692383,4084.615234,4170.256348,4197.436035
4122.563965,4129.743652,4197.94873,4195.384277,4177.436035,4194.358887,4195.384277,4199.487305,4172.307617,4175.897461,4187.179199,4083.076904,4174.871582,4196.410156
4124.615234,4124.615234,4200,4198.974121,4176.922852,4194.871582,4194.871582,4198.461426,4175.384277,4173.333008,4188.717773,4082.563965,4171.794922,4198.461426
4121.538574,4117.436035,4194.358887,4197.436035,4175.897461,4194.358887,4194.871582,4195.897461,4174.358887,4167.179199,4191.281738,4083.076904,4171.794922,4198.461426
4115.897461,4115.897461,4197.436035,4198.461426,4175.897461,4196.922852,4201.538574,4195.897461,4169.230469,4165.641113,4188.717773,4084.615234,4169.743652,4195.384277
4121.025391,4130.769043,4193.333008,4195.897461,4180.512695,4195.384277,4198.974121,4195.897461,4177.94873,4183.07666,4186.153809,4083.5896,4172.820313,4195.897461
4124.615234,4118.974121,4198.461426,4196.410156,4179.487305,4196.922852,4198.461426,4195.897461,4180.512695,4190.256348,4188.717773,4080.512695,4172.820313,4198.461426
4129.743652,4121.025391,4199.487305,4195.897461,4177.94873,4197.436035,4198.461426,4195.897461,4179.487305,4189.230469,4191.794922,4083.5896,4174.871582,4197.94873
4127.179199,4122.563965,4197.94873,4200.512695,4176.922852,4199.487305,4197.94873,4195.897461,4178.974121,4187.179199,4189.230469,4087.179443,4171.794922,4196.922852
4128.205078,4127.179199,4193.846191,4198.974121,4178.974121,4197.436035,4192.820313,4194.871582,4182.05127,4193.846191,4187.692383,4084.615234,4169.230469,4196.410156
4131.281738,4123.07666,4198.974121,4195.897461,4179.487305,4194.871582,4196.410156,4196.922852,4178.974121,4182.563965,4189.743652,4083.076904,4172.820313,4197.436035
4131.281738,4122.05127,4200,4195.384277,4177.94873,4191.281738,4197.94873,4196.922852,4174.358887,4171.794922,4189.230469,4081.53833,4176.410156,4197.94873
4128.717773,4125.12793,4197.94873,4196.922852,4177.94873,4191.794922,4193.333008,4193.846191,4172.307617,4187.179199,4187.179199,4083.5896,4174.358887,4198.461426
4131.281738,4128.717773,4200,4197.436035,4175.897461,4194.358887,4193.333008,4194.358887,4174.871582,4181.025391,4188.205078,4085.128174,4170.256348,4197.94873
4121.538574,4112.307617,4198.974121,4194.358887,4170.769043,4192.307617,4197.436035,4196.922852,4175.897461,4150.769043,4189.230469,4081.53833,4168.717773,4196.922852
4099.487305,4074.871582,4200,4193.333008,4165.641113,4193.846191,4197.94873,4194.871582,4160,4147.692383,4187.179199,4076.923096,4158.461426,4193.846191
4092.820313,4064.615234,4195.897461,4192.307617,4162.563965,4194.871582,4193.846191,4193.333008,4154.871582,4171.281738,4188.205078,4081.025635,4150.769043,4194.358887
4091.281982,4064.615234,4195.897461,4197.436035,4158.461426,4196.922852,4197.436035,4195.897461,4159.487305,4160,4187.692383,4081.025635,4151.281738,4199.487305
4089.230713,4073.333252,4194.358887,4194.358887,4157.436035,4195.897461,4195.384277,4194.358887,4164.102539,4149.743652,4187.179199,4078.461426,4160,4201.025391
4095.897217,4063.5896,4199.487305,4193.846191,4156.410156,4195.897461,4196.410156,4192.820313,4158.974121,4156.922852,4188.717773,4081.025635,4160,4195.897461
4103.589844,4070.769043,4196.410156,4195.384277,4158.974121,4190.256348,4194.358887,4195.384277,4163.589844,4164.615234,4189.230469,4082.05127,4160.512695,4194.358887
4092.307617,4072.820313,4199.487305,4198.974121,4160.512695,4193.333008,4196.922852,4197.94873,4160,4149.230469,4186.153809,4079.487061,4156.410156,4195.897461
4089.230713,4086.666504,4196.410156,4192.307617,4163.07666,4195.384277,4195.897461,4195.897461,4159.487305,4150.769043,4187.179199,4077.435791,4156.410156,4196.410156
4094.358887,4065.640869,4197.94873,4194.871582,4161.025391,4196.922852,4200.512695,4195.897461,4158.974121,4158.461426,4186.666504,4077.435791,4153.846191,4197.94873
4097.94873,4053.333252,4193.846191,4196.922852,4161.538574,4194.871582,4195.897461,4195.384277,4162.563965,4157.436035,4185.12793,4077.435791,4151.794922,4200
4091.794678,4064.615234,4197.436035,4197.94873,4162.563965,4195.384277,4192.307617,4192.307617,4160.512695,4147.179199,4187.692383,4077.94873,4148.717773,4199.487305
4088.205078,4090.256348,4196.410156,4194.871582,4163.589844,4193.846191,4193.846191,4193.333008,4163.589844,4160,4189.230469,4076.410156,4154.871582,4197.436035
4087.692139,4086.153809,4198.461426,4194.871582,4162.563965,4195.897461,4197.436035,4196.922852,4163.589844,4167.692383,4188.717773,4077.94873,4160.512695,4196.922852
4094.358887,4085.128174,4197.436035,4193.333008,4164.102539,4194.358887,4193.846191,4194.871582,4160,4165.641113,4190.769043,4079.487061,4162.563965,4195.384277
4094.358887,4089.743408,4198.974121,4195.384277,4165.12793,4192.307617,4195.897461,4193.333008,4153.846191,4166.666504,4189.743652,4080.512695,4160,4195.897461
4095.897217,4092.820313,4198.461426,4195.384277,4167.692383,4194.871582,4199.487305,4195.897461,4158.461426,4170.256348,4186.666504,4080,4160,4198.974121
4100.512695,4097.94873,4196.922852,4192.820313,4168.717773,4195.897461,4198.974121,4196.410156,4167.692383,4168.717773,4189.230469,4077.94873,4161.538574,4199.487305
4099.487305,4106.153809,4198.461426,4195.384277,4166.153809,4194.358887,4198.461426,4193.846191,4168.717773,4164.615234,4190.769043,4077.435791,4160,4195.384277
4099.487305,4110.769043,4196.922852,4196.922852,4169.230469,4196.922852,4196.922852,4195.384277,4169.743652,4166.666504,4190.769043,4077.94873,4161.538574,4193.333008
4103.589844,4096.410156,4198.461426,4195.897461,4172.820313,4201.538574,4197.436035,4196.410156,4168.205078,4168.717773,4193.333008,4077.435791,4160.512695,4195.897461
4105.12793,4109.230469,4195.384277,4192.820313,4174.358887,4197.436035,4194.871582,4193.333008,4170.769043,4173.846191,4193.333008,4077.94873,4160,4201.025391
4097.94873,4121.025391,4196.922852,4197.436035,4173.846191,4197.436035,4197.436035,4192.820313,4170.256348,4168.205078,4189.230469,4075.384521,4161.538574,4198.974121
4104.102539,4111.281738,4195.384277,4196.410156,4175.384277,4194.871582,4195.897461,4195.897461,4169.230469,4173.333008,4188.717773,4073.333252,4165.641113,4195.384277
4108.205078,4081.025635,4202.05127,4196.922852,4171.794922,4193.333008,4196.922852,4197.436035,4166.153809,4170.769043,4187.179199,4074.871582,4159.487305,4195.897461
4106.153809,4105.12793,4197.94873,4194.358887,4172.307617,4190.769043,4194.358887,4195.897461,4178.974121,4173.333008,4186.153809,4076.410156,4166.153809,4197.436035
4113.846191,4132.307617,4198.974121,4197.94873,4174.358887,4193.846191,4197.94873,4195.897461,4176.410156,4169.230469,4188.717773,4075.897217,4168.717773,4194.358887
4145.12793,4142.563965,4196.922852,4196.410156,4175.384277,4194.871582,4195.384277,4195.897461,4170.769043,4170.256348,4190.769043,4074.871582,4163.589844,4195.897461
4158.461426,4120,4198.461426,4196.922852,4173.846191,4197.94873,4193.846191,4194.358887,4174.358887,4176.410156,4187.692383,4072.820313,4162.05127,4195.897461
4151.794922,4111.794922,4194.358887,4195.384277,4175.897461,4196.922852,4193.846191,4193.333008,4180.512695,4187.179199,4187.179199,4071.794678,4171.794922,4194.871582
4143.589844,4102.563965,4197.436035,4196.922852,4174.358887,4196.922852,4198.461426,4193.333008,4168.717773,4167.179199,4186.153809,4070.769043,4165.641113,4197.94873
4143.589844,4101.538574,4197.94873,4194.871582,4171.281738,4195.384277,4195.384277,4193.846191,4161.538574,4152.820313,4187.179199,4072.820313,4157.94873,4201.025391
4137.94873,4095.384521,4200,4195.384277,4168.205078,4195.384277,4194.871582,4194.871582,4162.563965,4163.589844,4188.717773,4074.871582,4156.410156,4200
4138.461426,4097.94873,4196.410156,4196.410156,4168.205078,4192.820313,4195.384277,4196.922852,4164.615234,4171.281738,4189.230469,4072.307617,4157.436035,4197.94873
4140,4093.845947,4195.384277,4195.897461,4171.281738,4191.794922,4194.358887,4197.94873,4168.717773,4171.794922,4190.256348,4071.281982,4160,4196.410156
4140,4093.333252,4197.94873,4193.333008,4174.871582,4193.333008,4195.384277,4194.358887,4171.794922,4180,4189.230469,4071.794678,4159.487305,4195.384277
4142.563965,4100,4196.410156,4194.358887,4175.384277,4193.846191,4197.94873,4193.333008,4169.743652,4176.410156,4187.179199,4071.281982,4158.461426,4197.436035
4146.666504,4096.410156,4194.871582,4198.974121,4173.846191,4193.846191,4198.461426,4197.436035,4166.153809,4161.025391,4187.179199,4069.230713,4157.436035,4197.94873
4152.307617,4105.641113,4196.410156,4198.461426,4176.922852,4192.307617,4195.897461,4198.461426,4169.230469,4172.307617,4188.717773,4070.769043,4158.974121,4196.922852
4148.205078,4107.692383,4201.025391,4198.974121,4175.897461,4193.846191,4198.974121,4195.384277,4167.179199,4175.384277,4185.641113,4071.281982,4159.487305,4195.384277
4143.07666,4106.153809,4194.358887,4196.410156,4176.922852,4193.333008,4197.436035,4196.410156,4167.179199,4163.589844,4184.102539,4071.794678,4165.12793,4194.871582
4143.07666,4099.487305,4197.94873,4195.897461,4176.922852,4193.846191,4198.974121,4197.94873,4171.281738,4163.589844,4186.666504,4070.769043,4163.589844,4197.94873
4144.615234,4106.666504,4197.436035,4193.333008,4174.871582,4192.307617,4195.897461,4195.384277,4175.384277,4183.07666,4189.743652,4070.769043,4162.563965,4198.974121
4136.410156,4093.845947,4200.512695,4195.897461,4172.820313,4195.897461,4196.922852,4195.384277,4165.641113,4174.358887,4189.230469,4070.769043,4158.461426,4194.871582
4137.94873,4098.461426,4195.897461,4193.333008,4175.897461,4192.820313,4195.384277,4197.436035,4166.666504,4166.666504,4187.692383,4068.205078,4157.94873,4193.333008
4138.974121,4090.769043,4197.94873,4194.358887,4173.846191,4193.333008,4199.487305,4196.410156,4172.820313,4170.769043,4184.615234,4068.717773,4157.94873,4194.871582
4140,4095.897217,4194.871582,4192.820313,4171.794922,4194.358887,4195.897461,4194.358887,4175.384277,4174.871582,4186.666504,4071.794678,4166.153809,4197.94873
4140,4108.717773,4196.922852,4197.94873,4172.307617,4197.436035,4198.461426,4196.922852,4165.12793,4168.205078,4189.230469,4070.769043,4164.615234,4196.922852
4146.153809,4113.846191,4194.358887,4198.974121,4176.410156,4195.897461,4199.487305,4196.922852,4168.205078,4175.384277,4187.179199,4067.692139,4158.461426,4192.307617
4144.615234,4087.179443,4199.487305,4198.461426,4177.94873,4194.358887,4196.410156,4194.358887,4171.281738,4166.666504,4185.641113,4069.230713,4155.384277,4193.846191
4142.563965,4102.05127,4198.461426,4196.410156,4176.922852,4191.794922,4193.846191,4194.871582,4172.307617,4163.07666,4188.717773,4069.743408,4162.563965,4199.487305
4137.436035,4121.538574,4196.922852,4197.436035,4174.871582,4193.846191,4200,4197.94873,4172.307617,4183.07666,4191.281738,4069.230713,4164.102539,4196.922852
4142.05127,4109.230469,4194.358887,4196.922852,4177.436035,4194.871582,4197.94873,4197.94873,4172.820313,4196.410156,4190.769043,4069.230713,4163.589844,4192.820313
4145.641113,4103.07666,4192.307617,4194.871582,4179.487305,4192.820313,4192.820313,4197.436035,4170.769043,4183.07666,4188.717773,4067.692139,4166.666504,4195.897461
4135.384277,4115.384277,4193.846191,4192.307617,4175.897461,4191.794922,4195.897461,4196.410156,4170.769043,4174.871582,4184.615234,4066.153809,4168.205078,4195.384277
4126.666504,4106.666504,4195.897461,4191.281738,4173.846191,4193.333008,4196.410156,4193.846191,4174.358887,4181.025391,4183.589844,4067.179443,4166.666504,4194.358887
4131.281738,4090.769043,4194.871582,4194.871582,4171.281738,4195.384277,4193.333008,4195.897461,4170.256348,4175.384277,4185.641113,4067.692139,4162.563965,4196.410156
4137.94873,4110.256348,4191.794922,4194.358887,4168.717773,4193.333008,4192.307617,4198.974121,4170.769043,4176.922852,4186.666504,4068.205078,4164.615234,4195.897461
4135.897461,4108.717773,4199.487305,4195.384277,4167.692383,4192.307617,4197.436035,4195.897461,4172.307617,4177.94873,4185.12793,4067.179443,4166.666504,4194.871582
4135.897461,4105.12793,4195.384277,4194.358887,4171.794922,4190.769043,4195.384277,4193.333008,4173.333008,4181.538574,4188.717773,4064.615234,4168.205078,4197.94873
4133.846191,4111.794922,4194.358887,4196.410156,4171.794922,4193.846191,4196.922852,4195.897461,4170.256348,4178.974121,4189.743652,4063.076904,4164.615234,4196.922852
4144.102539,4126.666504,4192.820313,4193.846191,4172.307617,4191.281738,4195.384277,4196.410156,4174.358887,4182.05127,4188.205078,4065.640869,4170.769043,4194.871582
4148.717773,4101.025391,4197.94873,4195.897461,4170.256348,4191.281738,4196.922852,4195.897461,4173.333008,4182.05127,4186.153809,4067.179443,4171.281738,4193.846191
4142.05127,4103.07666,4194.358887,4192.307617,4170.256348,4190.256348,4193.333008,4196.410156,4176.922852,4189.743652,4186.666504,4064.102539,4170.256348,4194.358887
4133.333008,4116.922852,4197.94873,4193.333008,4169.743652,4193.333008,4195.384277,4193.846191,4175.384277,4184.102539,4187.179199,4061.53833,4168.205078,4195.384277
4140,4127.179199,4194.358887,4191.794922,4173.846191,4192.307617,4192.307617,4191.794922,4174.358887,4179.487305,4186.666504,4062.563965,4171.281738,4193.846191
4146.153809,4113.846191,4194.358887,4193.846191,4173.846191,4194.358887,4195.384277,4193.846191,4173.846191,4173.846191,4184.615234,4064.102539,4167.179199,4192.307617
4154.871582,4114.871582,4192.820313,4191.281738,4173.333008,4192.307617,4196.922852,4194.871582,4181.538574,4181.538574,4186.666504,4064.615234,4167.692383,4192.820313
4160,4115.384277,4195.384277,4193.333008,4172.307617,4191.794922,4195.897461,4195.384277,4180.512695,4190.769043,4188.717773,4064.615234,4170.256348,4192.820313
4162.563965,4128.717773,4193.846191,4193.846191,4170.769043,4193.333008,4192.820313,4195.897461,4181.025391,4198.461426,4189.230469,4064.102539,4172.820313,4191.794922
4159.487305,4121.025391,4195.384277,4193.846191,4169.743652,4196.922852,4196.410156,4195.897461,4182.05127,4195.384277,4187.692383,4064.615234,4173.333008,4192.820313
4158.974121,4105.12793,4197.94873,4193.846191,4171.281738,4194.358887,4197.94873,4195.384277,4179.487305,4191.281738,4186.153809,4064.102539,4171.281738,4192.820313
4153.333008,4108.717773,4196.922852,4193.846191,4170.256348,4193.333008,4195.384277,4195.384277,4176.922852,4187.692383,4186.153809,4061.025635,4167.179199,4193.846191
4147.692383,4125.641113,4196.410156,4193.846191,4168.205078,4195.384277,4196.410156,4193.333008,4176.410156,4176.922852,4187.179199,4061.53833,4166.153809,4194.358887
4148.205078,4140.512695,4194.871582,4192.820313,4169.743652,4192.820313,4197.436035,4191.794922,4174.871582,4173.846191,4187.179199,4064.615234,4172.307617,4193.333008
4152.820313,4122.563965,4196.922852,4194.871582,4169.230469,4192.307617,4198.974121,4194.358887,4171.794922,4181.538574,4184.102539,4060.512695,4172.820313,4192.820313
4155.384277,4110.769043,4195.384277,4196.922852,4169.743652,4192.307617,4195.897461,4196.410156,4177.436035,4193.333008,4183.589844,4060,4168.205078,4193.846191
4148.717773,4110.256348,4199.487305,4201.538574,4170.256348,4193.333008,4194.358887,4196.410156,4180,4188.205078,4185.12793,4062.563965,4163.07666,4193.846191
4146.666504,4107.179199,4194.358887,4195.897461,4170.256348,4191.281738,4190.256348,4194.871582,4178.461426,4179.487305,4186.153809,4061.025635,4168.205078,4194.358887
4146.153809,4090.256348,4196.410156,4195.384277,4168.205078,4194.358887,4194.871582,4195.384277,4170.769043,4168.205078,4184.102539,4061.53833,4166.666504,4197.436035
4150.256348,4122.05127,4195.897461,4194.358887,4172.820313,4193.333008,4196.410156,4196.410156,4176.922852,4173.846191,4188.205078,4064.615234,4168.717773,4197.94873
4147.179199,4132.820313,4199.487305,4192.820313,4173.846191,4193.846191,4198.461426,4196.922852,4178.461426,4175.897461,4189.743652,4062.563965,4168.717773,4195.384277
4142.563965,4120.512695,4193.333008,4192.307617,4172.820313,4192.820313,4195.384277,4195.384277,4172.307617,4182.563965,4187.179199,4062.05127,4167.179199,4194.871582
4134.358887,4107.692383,4196.922852,4200,4168.205078,4193.846191,4198.974121,4196.410156,4166.666504,4186.666504,4186.153809,4062.05127,4162.05127,4196.410156
4140.512695,4116.922852,4196.410156,4196.410156,4168.205078,4191.794922,4195.897461,4196.410156,4177.94873,4188.205078,4188.205078,4058.974365,4167.692383,4195.897461
4145.641113,4112.307617,4196.922852,4194.871582,4172.307617,4192.820313,4196.410156,4194.871582,4178.974121,4181.538574,4188.717773,4059.487061,4168.205078,4192.820313
4144.615234,4121.538574,4192.820313,4195.897461,4177.436035,4192.820313,4196.410156,4194.358887,4174.871582,4185.641113,4187.692383,4060,4163.07666,4191.794922
4142.563965,4112.820313,4194.871582,4196.922852,4175.384277,4194.871582,4196.922852,4196.410156,4172.820313,4185.641113,4184.615234,4058.461426,4163.07666,4195.384277
4147.179199,4113.333008,4197.94873,4192.820313,4172.820313,4194.358887,4195.384277,4196.410156,4174.358887,4177.94873,4184.102539,4058.461426,4171.281738,4197.436035
4145.12793,4121.538574,4199.487305,4192.820313,4175.897461,4194.358887,4197.436035,4195.384277,4171.794922,4180.512695,4186.153809,4061.025635,4171.794922,4194.358887
4140,4123.07666,4195.897461,4192.820313,4175.384277,4193.333008,4197.436035,4196.922852,4170.769043,4191.794922,4186.666504,4061.025635,4166.666504,4193.333008
4137.94873,4120,4195.897461,4193.846191,4172.820313,4193.333008,4196.410156,4198.461426,4174.871582,4197.94873,4186.666504,4062.05127,4168.205078,4196.922852
4140,4112.307617,4201.538574,4195.897461,4172.820313,4195.384277,4197.94873,4195.897461,4175.384277,4193.333008,4188.717773,4064.102539,4169.743652,4196.922852
4142.05127,4110.769043,4196.410156,4193.333008,4174.871582,4194.358887,4195.897461,4195.897461,4178.461426,4188.717773,4188.717773,4063.076904,4170.256348,4195.897461
4135.897461,4107.692383,4196.922852,4193.333008,4172.820313,4194.871582,4195.897461,4196.922852,4177.436035,4190.256348,4188.205078,4061.025635,4169.743652,4195.384277
4132.820313,4109.743652,4197.436035,4193.846191,4173.846191,4195.897461,4197.436035,4196.922852,4179.487305,4196.922852,4189.743652,4060.512695,4171.794922,4196.922852
4136.922852,4099.487305,4199.487305,4197.436035,4174.358887,4196.410156,4200,4197.94873,4179.487305,4189.743652,4187.179199,4060,4170.769043,4196.922852
4145.641113,4108.717773,4196.410156,4195.384277,4177.436035,4191.794922,4195.897461,4197.94873,4185.641113,4200,4187.179199,4057.435791,4179.487305,4195.384277
4138.974121,4112.820313,4200,4197.436035,4178.461426,4195.384277,4199.487305,4196.922852,4186.666504,4213.846191,4190.256348,4055.897217,4183.07666,4194.871582
4133.846191,4114.358887,4192.820313,4194.871582,4177.436035,4195.897461,4197.94873,4196.410156,4186.153809,4214.871582,4188.205078,4056.410156,4180,4195.897461
4134.871582,4089.743408,4194.871582,4196.922852,4173.846191,4194.358887,4197.436035,4196.922852,4179.487305,4203.07666,4185.12793,4059.487061,4175.384277,4196.922852
4138.974121,4103.07666,4195.897461,4196.410156,4176.410156,4192.307617,4196.410156,4196.922852,4184.615234,4210.769043,4192.820313,4062.05127,4178.974121,4195.897461
4127.692383,4120,4201.025391,4197.94873,4176.922852,4196.410156,4200.512695,4196.410156,4186.153809,4205.12793,4195.384277,4057.435791,4175.897461,4196.410156
4126.153809,4116.410156,4197.436035,4194.358887,4177.94873,4193.333008,4195.384277,4194.358887,4185.12793,4203.589844,4187.179199,4052.820313,4176.922852,4195.897461
4133.846191,4098.974121,4197.94873,4193.846191,4178.461426,4193.333008,4192.307617,4195.384277,4184.102539,4206.666504,4184.102539,4058.974365,4181.025391,4195.897461
4137.436035,4115.384277,4195.897461,4191.794922,4179.487305,4193.846191,4193.333008,4196.410156,4191.794922,4207.179199,4187.179199,4066.153809,4183.589844,4195.897461
4135.384277,4116.922852,4197.436035,4194.358887,4179.487305,4191.794922,4197.436035,4194.358887,4189.743652,4205.641113,4187.692383,4061.025635,4182.05127,4194.871582
4142.563965,4120,4197.94873,4195.384277,4181.025391,4191.281738,4197.436035,4194.358887,4184.615234,4209.743652,4189.230469,4054.871582,4184.615234,4196.410156
4142.563965,4127.692383,4199.487305,4195.384277,4181.538574,4195.897461,4196.922852,4197.436035,4188.205078,4209.743652,4189.743652,4059.487061,4186.153809,4198.461426
4142.05127,4113.333008,4198.461426,4195.897461,4182.05127,4195.897461,4197.94873,4197.436035,4193.333008,4213.333008,4189.230469,4061.025635,4182.05127,4197.436035
4152.307617,4116.410156,4194.871582,4193.333008,4184.615234,4193.333008,4198.461426,4196.410156,4191.794922,4221.025391,4192.820313,4055.384521,4181.025391,4196.410156
4153.846191,4137.94873,4197.436035,4192.307617,4183.589844,4196.410156,4196.410156,4196.410156,4189.230469,4211.281738,4190.769043,4053.333252,4179.487305,4195.897461
4151.281738,4146.153809,4196.410156,4194.358887,4184.615234,4197.436035,4193.333008,4195.897461,4196.922852,4208.717773,4184.102539,4056.410156,4182.05127,4195.384277
4169.743652,4146.153809,4198.974121,4198.974121,4194.358887,4197.94873,4199.487305,4197.94873,4202.05127,4228.717773,4189.230469,4057.435791,4189.230469,4195.384277
4192.307617,4180.512695,4196.922852,4194.358887,4207.692383,4195.897461,4199.487305,4198.974121,4211.794922,4252.307617,4196.922852,4055.384521,4200,4196.922852
4187.692383,4187.179199,4201.025391,4195.897461,4207.692383,4196.410156,4198.974121,4196.410156,4212.820313,4243.589844,4191.794922,4057.435791,4198.461426,4195.897461
4186.153809,4186.666504,4196.410156,4196.410156,4204.615234,4194.358887,4196.922852,4195.384277,4212.307617,4242.05127,4189.743652,4062.563965,4198.461426,4193.333008
4194.358887,4187.179199,4196.922852,4196.922852,4205.12793,4197.94873,4198.974121,4198.461426,4212.307617,4249.743652,4191.281738,4063.5896,4197.436035,4197.436035
4200,4191.794922,4192.820313,4193.333008,4208.205078,4198.461426,4193.333008,4198.461426,4220.512695,4253.333008,4190.769043,4061.025635,4197.94873,4201.538574
4194.871582,4178.974121,4196.922852,4197.94873,4206.153809,4198.461426,4195.897461,4197.436035,4218.461426,4244.102539,4192.820313,4059.487061,4198.461426,4198.461426
4191.794922,4193.846191,4194.358887,4196.922852,4207.179199,4193.333008,4195.897461,4196.922852,4216.922852,4253.333008,4191.794922,4056.923096,4202.563965,4194.871582
4185.641113,4187.692383,4197.436035,4196.922852,4205.641113,4196.410156,4198.974121,4196.922852,4212.307617,4251.281738,4186.666504,4055.897217,4195.897461,4196.410156
4189.743652,4178.974121,4197.94873,4193.333008,4204.102539,4196.410156,4197.94873,4196.410156,4211.281738,4246.666504,4189.230469,4057.94873,4193.333008,4196.922852
4190.256348,4175.897461,4201.025391,4195.897461,4205.641113,4195.897461,4199.487305,4197.436035,4210.256348,4242.05127,4191.281738,4061.025635,4195.897461,4196.922852
4186.666504,4191.281738,4195.897461,4198.974121,4205.12793,4194.871582,4196.410156,4197.436035,4211.794922,4240.512695,4188.205078,4060.512695,4200.512695,4198.974121
4189.230469,4190.256348,4195.897461,4200.512695,4203.07666,4195.897461,4197.436035,4196.410156,4208.205078,4241.538574,4190.256348,4057.435791,4201.025391,4199.487305
4197.94873,4183.589844,4199.487305,4200,4206.666504,4194.358887,4198.461426,4196.410156,4208.717773,4243.589844,4193.846191,4056.923096,4197.94873,4196.410156
4201.538574,4182.05127,4199.487305,4198.461426,4205.641113,4193.846191,4198.461426,4196.922852,4212.307617,4245.641113,4191.794922,4061.53833,4194.358887,4195.384277
4203.07666,4183.589844,4195.897461,4196.410156,4202.05127,4195.384277,4198.461426,4197.94873,4213.846191,4251.794922,4190.256348,4061.53833,4196.410156,4196.410156
4198.974121,4175.384277,4195.384277,4193.846191,4206.666504,4194.871582,4197.94873,4198.461426,4213.333008,4252.820313,4191.281738,4058.974365,4195.897461,4195.897461
4191.281738,4163.589844,4200,4196.922852,4209.230469,4195.384277,4198.974121,4196.922852,4208.205078,4234.871582,4192.820313,4061.025635,4187.692383,4193.333008
4192.307617,4180.512695,4195.897461,4196.922852,4205.12793,4193.846191,4197.436035,4196.922852,4208.717773,4233.846191,4192.307617,4062.05127,4191.794922,4194.871582
4196.410156,4176.922852,4198.461426,4198.461426,4203.07666,4194.358887,4198.974121,4196.410156,4204.615234,4238.974121,4188.205078,4057.94873,4194.871582,4196.922852
4198.461426,4169.230469,4200,4200.512695,4204.102539,4194.358887,4197.94873,4195.897461,4205.641113,4235.897461,4189.743652,4056.410156,4193.333008,4196.922852
4192.820313,4170.256348,4203.07666,4203.07666,4201.025391,4199.487305,4200.512695,4197.94873,4207.179199,4229.230469,4193.846191,4059.487061,4190.256348,4197.436035
4189.230469,4180.512695,4194.358887,4195.384277,4203.589844,4197.94873,4196.922852,4197.436035,4213.333008,4237.94873,4189.743652,4060,4194.358887,4196.410156
4187.692383,4167.692383,4196.410156,4196.922852,4205.12793,4194.358887,4197.94873,4194.871582,4210.256348,4237.94873,4186.666504,4058.461426,4191.794922,4194.871582
4194.871582,4184.102539,4194.358887,4198.974121,4207.179199,4191.794922,4196.922852,4192.307617,4210.769043,4245.12793,4192.820313,4057.94873,4195.897461,4195.897461
4189.743652,4181.025391,4198.461426,4199.487305,4206.666504,4195.897461,4197.436035,4194.358887,4205.641113,4245.641113,4191.794922,4058.461426,4192.307617,4196.922852
4177.94873,4160,4196.922852,4194.358887,4203.589844,4194.358887,4193.333008,4194.358887,4202.563965,4235.384277,4188.205078,4058.974365,4185.12793,4196.922852
4173.333008,4148.717773,4198.974121,4197.436035,4197.94873,4194.871582,4197.436035,4194.358887,4202.05127,4216.410156,4190.769043,4058.974365,4185.641113,4196.922852
4183.589844,4177.94873,4194.871582,4194.871582,4199.487305,4194.358887,4195.897461,4196.922852,4206.666504,4226.153809,4188.717773,4056.410156,4196.922852,4196.410156
4184.102539,4184.102539,4196.922852,4192.820313,4201.538574,4194.358887,4196.410156,4200,4205.641113,4238.974121,4185.12793,4056.410156,4197.94873,4196.410156
4185.641113,4176.410156,4196.410156,4193.846191,4203.07666,4195.897461,4197.436035,4197.94873,4207.179199,4234.358887,4188.717773,4060,4191.794922,4196.922852
4185.12793,4167.692383,4193.846191,4196.410156,4205.12793,4200.512695,4197.94873,4196.922852,4206.666504,4232.820313,4188.717773,4061.025635,4189.743652,4196.922852
4185.12793,4170.256348,4194.871582,4196.922852,4205.12793,4197.436035,4197.94873,4197.94873,4202.563965,4242.05127,4188.205078,4057.435791,4194.358887,4195.897461
4189.230469,4171.281738,4198.974121,4196.922852,4202.563965,4193.846191,4200,4195.897461,4201.025391,4240.512695,4193.333008,4057.435791,4196.922852,4197.436035
4190.256348,4180,4198.974121,4196.410156,4206.153809,4195.384277,4200.512695,4197.94873,4205.12793,4234.358887,4194.358887,4057.94873,4195.384277,4197.436035
4183.07666,4182.563965,4194.871582,4195.384277,4209.743652,4194.871582,4195.897461,4201.538574,4209.230469,4236.410156,4191.794922,4056.923096,4196.410156,4194.358887
4172.307617,4136.410156,4198.461426,4198.974121,4199.487305,4195.384277,4196.410156,4197.436035,4201.538574,4222.563965,4188.717773,4055.384521,4187.179199,4194.871582
4161.538574,4113.333008,4194.871582,4197.94873,4191.281738,4194.871582,4195.897461,4194.871582,4193.846191,4210.769043,4186.666504,4054.358887,4178.461426,4197.436035
4151.794922,4130.769043,4194.871582,4196.922852,4190.256348,4195.897461,4198.461426,4197.436035,4188.717773,4211.794922,4186.666504,4054.358887,4177.94873,4195.897461
4153.846191,4149.230469,4192.307617,4192.307617,4191.794922,4194.871582,4196.410156,4195.384277,4191.281738,4213.333008,4187.692383,4057.435791,4184.102539,4196.410156
4155.384277,4130.256348,4196.410156,4195.384277,4189.230469,4195.897461,4197.94873,4194.871582,4186.666504,4201.538574,4186.153809,4057.435791,4182.05127,4197.436035
4160.512695,4138.974121,4189.743652,4195.384277,4189.743652,4192.820313,4194.358887,4196.410156,4190.769043,4212.820313,4189.230469,4057.435791,4182.05127,4193.846191
4162.563965,4135.384277,4192.307617,4196.410156,4187.692383,4195.384277,4197.436035,4194.871582,4193.846191,4220.512695,4190.769043,4061.025635,4181.025391,4191.794922
4163.589844,4137.436035,4192.820313,4191.281738,4189.230469,4195.897461,4196.922852,4193.333008,4195.384277,4224.615234,4188.717773,4062.563965,4186.153809,4195.384277
4160,4140.512695,4198.461426,4196.410156,4190.256348,4196.922852,4196.922852,4196.410156,4194.358887,4223.07666,4187.179199,4058.974365,4190.769043,4196.922852
4166.666504,4161.025391,4194.358887,4197.94873,4189.743652,4192.820313,4192.307617,4197.436035,4199.487305,4225.12793,4187.692383,4057.435791,4193.333008,4193.333008
4169.230469,4171.281738,4196.922852,4196.922852,4186.666504,4194.358887,4196.922852,4195.897461,4198.461426,4218.461426,4187.179199,4057.435791,4192.820313,4195.897461
4168.717773,4178.461426,4198.974121,4195.384277,4187.179199,4196.922852,4196.410156,4196.922852,4202.05127,4224.102539,4188.717773,4055.384521,4197.94873,4202.563965
4169.743652,4166.666504,4197.94873,4197.436035,4189.230469,4198.461426,4194.871582,4200,4207.179199,4236.922852,4190.256348,4056.923096,4195.897461,4202.05127
4178.461426,4166.666504,4193.846191,4194.871582,4193.333008,4194.871582,4195.897461,4196.922852,4206.153809,4232.820313,4189.743652,4056.410156,4191.794922,4194.871582
4180,4169.743652,4197.436035,4196.922852,4193.846191,4195.897461,4196.922852,4196.922852,4203.07666,4221.538574,4189.743652,4055.897217,4194.358887,4195.897461
4177.94873,4169.230469,4199.487305,4198.461426,4190.769043,4197.94873,4195.897461,4200,4205.12793,4228.205078,4190.769043,4058.974365,4198.461426,4196.922852
4183.07666,4178.461426,4195.897461,4195.384277,4187.692383,4194.871582,4198.461426,4198.974121,4207.179199,4235.384277,4190.769043,4060.512695,4198.974121,4195.384277
4187.179199,4184.102539,4197.436035,4196.922852,4188.717773,4195.897461,4200.512695,4195.897461,4206.666504,4227.692383,4188.205078,4057.435791,4196.922852,4195.897461
4186.666504,4177.94873,4198.974121,4197.94873,4193.846191,4198.461426,4194.871582,4197.436035,4210.256348,4230.256348,4188.717773,4056.923096,4199.487305,4196.922852
4187.179199,4166.666504,4200,4196.410156,4191.794922,4197.94873,4193.846191,4197.94873,4204.102539,4229.743652,4188.717773,4056.923096,4198.461426,4196.410156
4189.230469,4180,4193.333008,4194.358887,4190.769043,4192.820313,4194.871582,4197.436035,4203.07666,4234.358887,4190.256348,4056.923096,4197.94873,4197.436035
4183.07666,4174.871582,4196.410156,4198.461426,4192.307617,4196.410156,4197.94873,4197.94873,4205.12793,4233.846191,4186.666504,4058.974365,4194.871582,4196.410156
4179.487305,4174.358887,4194.358887,4195.384277,4193.333008,4198.974121,4194.358887,4195.384277,4207.179199,4227.692383,4184.615234,4057.94873,4195.897461,4194.871582
4171.794922,4173.846191,4197.94873,4195.384277,4187.692383,4200,4196.922852,4194.358887,4198.461426,4220,4187.179199,4054.871582,4193.333008,4195.384277
4165.12793,4179.487305,4193.333008,4194.358887,4187.692383,4194.871582,4196.410156,4194.871582,4196.410156,4227.692383,4189.743652,4057.435791,4194.871582,4196.410156
4159.487305,4160.512695,4196.922852,4196.922852,4189.230469,4194.871582,4197.94873,4196.410156,4196.922852,4219.487305,4187.692383,4059.487061,4194.358887,4197.436035
4164.615234,4160.512695,4194.871582,4194.871582,4189.230469,4192.820313,4195.897461,4196.410156,4201.025391,4212.820313,4187.179199,4056.923096,4195.897461,4195.897461
4164.615234,4150.769043,4196.922852,4196.922852,4186.153809,4194.871582,4199.487305,4196.410156,4193.333008,4215.897461,4189.230469,4057.94873,4190.256348,4193.333008
4162.563965,4148.205078,4195.897461,4197.94873,4187.692383,4195.384277,4197.94873,4195.384277,4194.871582,4225.12793,4187.692383,4058.461426,4187.179199,4194.871582
4162.05127,4144.102539,4198.461426,4200,4190.256348,4197.436035,4200,4196.922852,4201.025391,4220,4185.641113,4055.897217,4189.230469,4197.436035
4166.153809,4150.769043,4194.358887,4195.897461,4190.769043,4197.94873,4196.922852,4198.974121,4201.538574,4216.410156,4189.743652,4054.358887,4193.846191,4196.410156
4161.538574,4153.846191,4196.410156,4195.897461,4188.717773,4198.974121,4193.333008,4196.410156,4193.333008,4214.358887,4191.794922,4057.94873,4193.846191,4195.384277
4160.512695,4169.743652,4197.436035,4196.410156,4188.205078,4195.384277,4195.897461,4194.358887,4192.820313,4211.794922,4190.256348,4055.897217,4192.307617,4195.897461
4162.05127,4170.769043,4193.333008,4195.384277,4186.666504,4193.846191,4200,4197.436035,4195.384277,4207.179199,4191.281738,4053.845947,4189.230469,4195.384277
4158.974121,4163.589844,4192.307617,4195.897461,4180.512695,4197.94873,4197.94873,4198.974121,4193.846191,4209.230469,4189.743652,4055.384521,4187.179199,4192.307617
4153.846191,4165.641113,4196.410156,4194.871582,4178.461426,4197.94873,4196.410156,4196.410156,4194.871582,4218.461426,4186.153809,4057.435791,4190.256348,4193.333008
4152.307617,4156.410156,4198.461426,4195.897461,4183.07666,4195.384277,4198.974121,4195.897461,4192.307617,4220,4185.641113,4056.410156,4188.717773,4195.897461
4155.897461,4160,4194.871582,4194.358887,4188.205078,4195.897461,4195.897461,4196.410156,4196.410156,4216.922852,4187.692383,4056.410156,4188.717773,4195.384277
4158.461426,4168.717773,4197.94873,4197.436035,4187.692383,4198.974121,4196.410156,4195.384277,4198.974121,4207.692383,4186.666504,4054.871582,4191.281738,4194.871582
4162.563965,4175.384277,4194.358887,4196.410156,4189.743652,4196.410156,4197.436035,4194.358887,4198.461426,4215.384277,4187.179199,4054.871582,4193.333008,4197.94873
4157.94873,4169.230469,4195.384277,4197.94873,4191.281738,4195.897461,4199.487305,4197.436035,4193.846191,4221.025391,4187.692383,4055.897217,4188.205078,4197.94873
4158.974121,4185.12793,4191.281738,4196.922852,4191.794922,4193.846191,4196.410156,4199.487305,4198.974121,4214.871582,4187.179199,4056.410156,4193.333008,4195.897461
4163.07666,4179.487305,4198.461426,4199.487305,4189.743652,4194.871582,4198.461426,4200.512695,4194.358887,4206.666504,4186.153809,4055.384521,4189.743652,4197.436035
4166.666504,4182.563965,4197.436035,4195.384277,4191.281738,4192.820313,4194.871582,4200,4191.794922,4222.05127,4189.743652,4054.871582,4187.692383,4198.461426
4164.102539,4179.487305,4197.436035,4194.871582,4189.230469,4196.410156,4198.974121,4197.436035,4196.922852,4223.589844,4191.281738,4056.923096,4192.820313,4195.897461
4170.256348,4186.153809,4194.358887,4195.897461,4188.717773,4195.384277,4201.538574,4193.333008,4203.07666,4225.12793,4187.179199,4056.410156,4198.974121,4195.384277
4171.794922,4184.615234,4201.538574,4200,4189.230469,4194.358887,4201.538574,4193.333008,4194.358887,4223.07666,4185.12793,4054.358887,4190.256348,4198.461426
4170.769043,4186.153809,4198.461426,4196.410156,4191.794922,4192.307617,4196.410156,4194.871582,4197.436035,4217.94873,4187.692383,4053.333252,4188.205078,4196.922852
4173.846191,4171.794922,4196.410156,4194.871582,4192.820313,4196.922852,4198.461426,4194.358887,4203.589844,4215.384277,4187.179199,4055.384521,4192.307617,4195.384277
4184.615234,4182.563965,4194.871582,4194.358887,4194.871582,4197.436035,4197.94873,4194.871582,4208.205078,4234.871582,4187.179199,4056.923096,4193.333008,4196.410156
4183.589844,4207.692383,4197.94873,4197.94873,4195.897461,4196.922852,4196.410156,4197.436035,4209.230469,4241.538574,4189.743652,4058.461426,4194.871582,4196.922852
4174.871582,4220,4196.410156,4196.922852,4195.384277,4196.922852,4195.897461,4196.410156,4205.12793,4223.07666,4188.717773,4056.410156,4197.94873,4194.871582
4173.333008,4213.333008,4196.922852,4195.384277,4194.871582,4195.897461,4194.871582,4195.384277,4198.974121,4218.974121,4190.256348,4056.923096,4194.871582,4195.897461
4176.410156,4208.205078,4200,4198.461426,4197.94873,4195.897461,4195.897461,4195.384277,4199.487305,4232.307617,4191.794922,4058.461426,4190.256348,4196.922852
4174.871582,4207.179199,4199.487305,4197.94873,4200,4194.871582,4199.487305,4195.897461,4200,4233.846191,4188.205078,4055.384521,4190.256348,4196.922852
4174.871582,4197.94873,4198.461426,4195.897461,4196.922852,4195.384277,4202.05127,4196.922852,4195.897461,4222.05127,4184.102539,4052.307617,4189.743652,4195.384277
4185.641113,4205.641113,4195.384277,4194.358887,4198.974121,4195.384277,4196.410156,4197.436035,4207.179199,4235.384277,4188.205078,4058.974365,4196.410156,4196.410156
4192.820313,4207.179199,4197.94873,4195.897461,4203.589844,4198.974121,4195.897461,4195.897461,4211.794922,4242.05127,4188.205078,4062.563965,4198.461426,4196.922852
4203.589844,4220,4196.922852,4192.820313,4207.692383,4199.487305,4195.897461,4195.897461,4212.820313,4237.94873,4186.666504,4061.025635,4200.512695,4197.436035
4209.743652,4226.666504,4200,4196.922852,4207.692383,4201.538574,4197.94873,4197.94873,4216.410156,4237.94873,4187.179199,4057.94873,4200.512695,4196.410156
4198.461426,4220,4197.436035,4195.897461,4206.153809,4197.94873,4193.846191,4196.922852,4212.820313,4237.436035,4187.692383,4055.384521,4197.436035,4195.384277
4178.461426,4175.897461,4199.487305,4195.897461,4194.871582,4195.897461,4196.922852,4195.384277,4189.743652,4205.641113,4184.102539,4052.307617,4185.641113,4195.384277
4178.461426,4170.256348,4194.871582,4193.846191,4189.230469,4193.333008,4196.410156,4194.871582,4185.641113,4198.974121,4185.12793,4053.333252,4184.102539,4196.410156
4178.974121,4182.05127,4198.461426,4196.922852,4192.820313,4195.384277,4198.974121,4195.384277,4192.820313,4216.410156,4188.205078,4057.94873,4184.102539,4198.974121
4178.461426,4191.281738,4195.897461,4194.358887,4196.410156,4194.358887,4196.410156,4196.410156,4193.333008,4222.05127,4185.12793,4057.435791,4187.692383,4198.974121
4183.589844,4178.461426,4195.897461,4196.410156,4191.794922,4195.897461,4194.871582,4195.897461,4190.256348,4208.717773,4185.12793,4055.384521,4188.205078,4198.974121
4189.743652,4183.07666,4194.871582,4196.410156,4194.871582,4194.358887,4191.281738,4194.871582,4196.922852,4209.230469,4189.743652,4053.845947,4187.179199,4198.461426
4184.615234,4185.641113,4200.512695,4197.436035,4201.538574,4194.358887,4194.358887,4196.922852,4193.846191,4213.333008,4189.743652,4054.871582,4183.589844,4200.512695
4183.07666,4186.153809,4197.94873,4196.410156,4200.512695,4193.333008,4194.871582,4198.461426,4192.820313,4217.436035,4188.717773,4054.871582,4184.102539,4198.974121
4185.641113,4183.589844,4196.922852,4196.922852,4196.922852,4195.384277,4194.358887,4198.461426,4198.974121,4220.512695,4189.230469,4054.358887,4185.641113,4197.436035
4189.743652,4197.436035,4197.94873,4194.358887,4197.94873,4196.922852,4193.846191,4197.94873,4197.94873,4218.461426,4187.179199,4051.794678,4186.153809,4197.94873
4187.179199,4198.461426,4197.94873,4194.871582,4197.94873,4194.871582,4195.384277,4195.897461,4194.358887,4213.333008,4186.666504,4054.358887,4186.666504,4200
4183.07666,4180,4196.410156,4197.94873,4196.922852,4193.846191,4197.94873,4192.307617,4195.384277,4212.820313,4188.717773,4056.410156,4185.641113,4197.436035
4189.230469,4186.153809,4194.358887,4196.922852,4198.974121,4195.384277,4197.436035,4193.333008,4198.974121,4214.358887,4189.230469,4054.871582,4186.666504,4196.410156
4197.436035,4197.94873,4196.410156,4196.410156,4198.461426,4196.922852,4198.461426,4196.922852,4202.05127,4213.333008,4186.666504,4051.794678,4185.641113,4195.897461
4196.922852,4200,4195.384277,4195.897461,4198.974121,4193.333008,4197.436035,4197.94873,4205.12793,4225.641113,4187.692383,4054.871582,4189.230469,4197.436035
4189.743652,4187.692383,4196.410156,4200,4198.461426,4194.871582,4198.461426,4196.922852,4197.436035,4230.256348,4186.666504,4055.897217,4186.153809,4195.897461
4191.794922,4198.974121,4191.794922,4197.94873,4200.512695,4194.358887,4195.384277,4196.410156,4201.025391,4226.666504,4189.230469,4053.845947,4184.102539,4195.384277
4192.307617,4203.07666,4195.384277,4196.922852,4204.102539,4197.436035,4197.436035,4197.436035,4206.153809,4218.461426,4190.769043,4052.820313,4188.205078,4197.436035
4193.846191,4211.281738,4195.384277,4194.358887,4205.641113,4195.384277,4194.358887,4196.410156,4207.692383,4225.641113,4188.717773,4054.871582,4195.384277,4198.974121
4190.769043,4197.94873,4199.487305,4197.436035,4197.436035,4192.820313,4195.384277,4197.436035,4195.384277,4216.410156,4185.12793,4055.384521,4187.179199,4195.384277
4188.205078,4193.846191,4194.358887,4193.846191,4196.922852,4190.769043,4193.846191,4197.436035,4192.307617,4213.846191,4186.153809,4055.384521,4184.615234,4194.358887
4181.538574,4186.153809,4194.871582,4195.897461,4198.974121,4196.410156,4195.897461,4194.358887,4192.820313,4208.205078,4186.666504,4055.384521,4186.153809,4196.922852
4181.538574,4182.05127,4194.871582,4197.94873,4196.922852,4194.871582,4191.794922,4192.307617,4195.384277,4202.563965,4186.153809,4053.845947,4183.07666,4197.436035
4177.94873,4160.512695,4197.94873,4200.512695,4193.846191,4193.846191,4193.333008,4194.871582,4188.205078,4203.07666,4186.666504,4053.845947,4176.922852,4196.410156
4177.94873,4177.94873,4192.820313,4197.94873,4194.871582,4193.333008,4194.358887,4196.922852,4189.230469,4218.461426,4188.205078,4055.384521,4184.102539,4195.897461
4181.025391,4195.384277,4193.846191,4197.436035,4196.410156,4195.384277,4197.436035,4196.410156,4192.307617,4217.94873,4186.666504,4054.871582,4185.641113,4196.410156
4184.615234,4189.230469,4194.358887,4195.897461,4196.922852,4196.410156,4197.94873,4193.333008,4191.794922,4207.692383,4185.12793,4052.307617,4178.461426,4195.384277
4181.025391,4173.846191,4194.871582,4196.922852,4194.358887,4195.897461,4196.922852,4191.794922,4192.307617,4208.717773,4187.179199,4051.794678,4179.487305,4196.922852
4177.94873,4177.436035,4195.897461,4198.461426,4192.820313,4193.333008,4194.871582,4193.846191,4192.307617,4209.743652,4187.692383,4052.820313,4183.589844,4197.436035
4179.487305,4190.256348,4196.922852,4196.410156,4195.897461,4194.358887,4194.358887,4196.922852,4188.205078,4206.153809,4187.692383,4054.871582,4181.025391,4197.94873
4181.538574,4201.025391,4195.897461,4195.897461,4197.436035,4196.922852,4197.436035,4194.871582,4190.769043,4207.179199,4188.205078,4055.897217,4178.974121,4196.922852
4182.563965,4207.692383,4191.794922,4195.384277,4198.461426,4194.871582,4197.94873,4194.358887,4198.974121,4209.230469,4186.153809,4056.410156,4184.615234,4198.974121
4184.102539,4196.922852,4196.410156,4195.897461,4202.05127,4194.871582,4196.922852,4197.436035,4192.820313,4204.615234,4184.102539,4054.358887,4182.05127,4199.487305
4191.281738,4200.512695,4195.897461,4193.846191,4204.615234,4194.358887,4194.358887,4196.922852,4188.717773,4212.820313,4187.179199,4055.384521,4181.025391,4197.94873
4188.717773,4190.769043,4195.897461,4196.922852,4202.563965,4195.384277,4198.974121,4193.333008,4191.281738,4217.436035,4188.717773,4056.923096,4179.487305,4194.871582
4183.07666,4186.153809,4192.820313,4195.384277,4201.538574,4193.846191,4198.461426,4194.871582,4192.820313,4216.922852,4188.205078,4057.435791,4178.974121,4196.410156
4188.205078,4173.846191,4196.410156,4194.871582,4198.974121,4195.897461,4197.94873,4199.487305,4185.12793,4210.769043,4186.666504,4054.871582,4176.922852,4199.487305
4197.94873,4168.205078,4192.307617,4193.333008,4200,4193.333008,4193.846191,4198.461426,4189.743652,4211.794922,4186.666504,4053.845947,4182.563965,4200
4181.025391,4156.410156,4196.410156,4198.461426,4196.410156,4193.846191,4195.897461,4194.358887,4185.641113,4197.436035,4185.12793,4053.845947,4180,4196.922852
4167.179199,4170.256348,4195.897461,4196.410156,4191.281738,4191.281738,4193.333008,4191.794922,4178.974121,4189.743652,4186.666504,4054.358887,4176.410156,4197.436035
4175.384277,4167.179199,4198.461426,4195.897461,4189.230469,4193.333008,4196.922852,4194.871582,4177.94873,4190.256348,4187.692383,4056.410156,4173.333008,4198.974121
4187.179199,4168.717773,4196.922852,4195.384277,4196.410156,4194.871582,4195.384277,4197.436035,4188.205078,4197.94873,4187.179199,4056.410156,4176.922852,4198.974121
4176.922852,4170.769043,4200.512695,4197.94873,4198.461426,4195.897461,4195.384277,4196.410156,4186.153809,4191.281738,4188.717773,4054.358887,4179.487305,4199.487305
4173.333008,4177.94873,4195.897461,4195.897461,4194.871582,4193.846191,4195.384277,4195.384277,4182.563965,4192.307617,4189.230469,4049.743408,4180,4199.487305
4177.94873,4166.666504,4196.410156,4196.410156,4192.820313,4194.871582,4198.974121,4197.94873,4181.025391,4201.538574,4186.666504,4052.307617,4174.871582,4199.487305
4180.512695,4168.205078,4198.461426,4194.871582,4192.820313,4196.922852,4197.436035,4196.922852,4185.641113,4206.666504,4185.641113,4055.897217,4175.897461,4198.974121
4175.897461,4174.871582,4200,4195.384277,4191.794922,4195.897461,4195.384277,4195.384277,4189.230469,4205.12793,4186.666504,4054.871582,4181.025391,4200
4178.461426,4179.487305,4198.461426,4198.461426,4194.358887,4192.307617,4195.897461,4195.897461,4187.692383,4201.025391,4186.153809,4052.307617,4177.94873,4195.897461
4187.179199,4188.717773,4193.846191,4198.461426,4197.94873,4191.794922,4195.897461,4196.922852,4190.256348,4205.12793,4189.743652,4055.897217,4174.871582,4195.384277
4189.743652,4193.333008,4195.897461,4197.436035,4196.410156,4196.410156,4194.871582,4197.94873,4194.358887,4211.794922,4189.743652,4055.897217,4178.974121,4198.974121
4185.12793,4176.922852,4197.94873,4196.922852,4195.897461,4195.384277,4192.820313,4197.436035,4190.256348,4202.563965,4186.153809,4052.820313,4182.563965,4202.05127
4175.897461,4157.436035,4200.512695,4198.974121,4195.897461,4192.307617,4197.94873,4195.384277,4180.512695,4189.230469,4187.179199,4051.794678,4175.897461,4198.461426
4177.94873,4195.897461,4196.922852,4199.487305,4197.436035,4193.333008,4198.461426,4200,4191.281738,4214.871582,4191.281738,4056.410156,4176.922852,4198.974121
4181.538574,4219.487305,4198.974121,4202.05127,4198.974121,4197.94873,4196.922852,4201.538574,4198.461426,4226.666504,4187.179199,4056.410156,4181.538574,4198.974121
4183.589844,4203.07666,4196.922852,4195.897461,4201.538574,4192.820313,4194.358887,4197.436035,4194.871582,4216.410156,4185.12793,4053.333252,4185.641113,4197.436035
4180,4177.436035,4197.94873,4196.922852,4200,4195.384277,4197.436035,4200.512695,4186.666504,4212.307617,4187.692383,4052.307617,4180.512695,4197.436035
4182.563965,4189.230469,4192.820313,4197.94873,4199.487305,4197.436035,4195.384277,4201.025391,4189.743652,4216.922852,4190.256348,4055.384521,4182.05127,4198.461426
4181.538574,4185.641113,4197.436035,4197.94873,4197.94873,4196.922852,4197.94873,4193.846191,4187.692383,4204.102539,4188.717773,4053.845947,4182.563965,4196.922852
4184.102539,4190.769043,4196.410156,4195.384277,4201.025391,4193.333008,4195.384277,4193.333008,4189.230469,4204.102539,4187.179199,4051.794678,4181.025391,4194.871582
4181.025391,4188.205078,4198.461426,4199.487305,4200,4197.94873,4194.871582,4197.94873,4186.153809,4193.846191,4187.692383,4053.845947,4175.384277,4195.897461
4180.512695,4192.307617,4196.922852,4197.436035,4198.461426,4195.897461,4193.846191,4196.410156,4188.717773,4191.794922,4190.769043,4055.897217,4180,4198.974121
4189.743652,4197.94873,4200.512695,4197.94873,4199.487305,4195.384277,4197.436035,4199.487305,4195.384277,4214.358887,4189.743652,4053.333252,4185.641113,4198.461426
4198.974121,4209.230469,4198.461426,4199.487305,4202.563965,4196.410156,4194.358887,4202.563965,4200.512695,4228.717773,4187.179199,4053.333252,4185.641113,4197.436035
4185.641113,4197.94873,4200,4200,4201.025391,4197.94873,4193.333008,4200,4193.846191,4215.897461,4192.307617,4058.461426,4180,4201.025391
4177.436035,4184.102539,4203.07666,4201.538574,4198.974121,4197.436035,4197.436035,4201.025391,4185.641113,4206.666504,4195.897461,4059.487061,4176.410156,4206.666504
4195.897461,4214.871582,4186.666504,4193.333008,4207.179199,4191.794922,4191.281738,4196.922852,4194.871582,4218.974121,4184.102539,4037.435791,4180,4187.179199
4186.666504,4185.12793,4193.846191,4197.94873,4202.563965,4196.922852,4195.384277,4200.512695,4188.717773,4202.563965,4189.230469,4051.281982,4177.436035,4196.922852
4162.563965,4130.769043,4223.589844,4214.871582,4188.717773,4205.641113,4211.281738,4210.769043,4172.307617,4180,4208.717773,4092.820313,4171.281738,4236.410156
4181.538574,4190.769043,4202.563965,4203.589844,4197.436035,4195.384277,4202.563965,4198.461426,4187.692383,4200,4190.769043,4056.410156,4174.871582,4203.589844
4199.487305,4247.179199,4164.615234,4179.487305,4211.281738,4182.563965,4181.538574,4185.641113,4204.615234,4220,4169.743652,4007.692139,4184.615234,4155.384277
4168.205078,4173.333008,4190.769043,4194.871582,4196.922852,4193.846191,4191.794922,4198.974121,4180,4190.769043,4185.641113,4041.53833,4175.897461,4185.641113
4156.922852,4150.256348,4211.794922,4207.179199,4187.179199,4201.025391,4202.05127,4204.102539,4173.846191,4188.205078,4198.974121,4072.820313,4168.717773,4217.436035
4175.384277,4196.922852,4196.410156,4195.897461,4195.897461,4196.922852,4196.922852,4194.358887,4189.230469,4213.846191,4186.666504,4047.692139,4173.333008,4191.794922
4172.820313,4197.94873,4191.794922,4191.794922,4199.487305,4194.358887,4192.307617,4196.410156,4187.692383,4212.820313,4185.12793,4043.5896,4180,4188.205078
4160.512695,4167.179199,4204.102539,4203.07666,4196.410156,4195.897461,4196.922852,4199.487305,4178.461426,4196.410156,4190.256348,4055.897217,4171.281738,4204.102539
4172.820313,4188.205078,4193.846191,4200,4200,4192.820313,4192.820313,4193.333008,4192.307617,4208.717773,4188.205078,4049.743408,4174.871582,4198.974121
4172.307617,4182.563965,4196.922852,4200,4196.410156,4197.94873,4197.94873,4194.358887,4187.179199,4201.025391,4187.692383,4051.281982,4180.512695,4196.922852
4169.743652,4181.538574,4196.410156,4196.922852,4196.410156,4195.897461,4196.922852,4197.94873,4182.563965,4196.410156,4188.717773,4054.358887,4180,4194.358887
4170.769043,4171.794922,4198.461426,4197.94873,4194.358887,4195.384277,4197.436035,4198.974121,4184.102539,4200.512695,4189.230469,4054.871582,4176.922852,4195.384277
4177.94873,4188.205078,4196.922852,4195.897461,4191.281738,4195.384277,4195.384277,4196.410156,4188.717773,4210.769043,4187.179199,4052.307617,4184.615234,4196.922852
4170.769043,4184.615234,4201.025391,4198.461426,4187.179199,4196.410156,4196.922852,4197.94873,4184.615234,4205.12793,4189.230469,4052.307617,4187.692383,4199.487305
4172.307617,4188.205078,4196.410156,4196.922852,4190.769043,4194.358887,4196.410156,4197.94873,4189.230469,4204.102539,4188.717773,4049.230713,4186.666504,4197.94873
4180,4204.102539,4190.769043,4193.333008,4193.846191,4194.871582,4194.871582,4193.333008,4196.410156,4216.410156,4185.641113,4041.025635,4189.230469,4190.769043
4171.281738,4162.563965,4211.281738,4205.12793,4181.025391,4206.153809,4201.538574,4202.05127,4183.589844,4206.666504,4195.384277,4066.666504,4187.179199,4214.871582
4175.897461,4180,4202.05127,4200,4184.615234,4203.589844,4196.922852,4199.487305,4191.281738,4213.846191,4188.717773,4058.461426,4188.205078,4205.12793
4186.153809,4209.230469,4196.922852,4198.461426,4194.871582,4198.974121,4198.461426,4197.94873,4202.05127,4221.538574,4188.205078,4052.307617,4195.384277,4197.436035
4204.102539,4243.589844,4193.846191,4196.922852,4203.589844,4191.794922,4193.333008,4198.461426,4218.461426,4243.589844,4188.717773,4045.640869,4205.641113,4191.281738
4202.05127,4229.230469,4203.07666,4200.512695,4200.512695,4195.897461,4195.384277,4200.512695,4212.820313,4235.384277,4191.281738,4055.897217,4201.538574,4199.487305
4203.589844,4259.487305,4192.820313,4192.820313,4204.102539,4194.871582,4193.333008,4193.333008,4214.358887,4230.769043,4183.589844,4048.717773,4200,4191.794922
4190.256348,4244.102539,4202.05127,4198.461426,4199.487305,4195.897461,4199.487305,4197.94873,4210.769043,4227.692383,4187.692383,4053.845947,4196.410156,4196.922852
4193.333008,4241.025391,4200.512695,4196.410156,4201.025391,4193.846191,4193.846191,4200,4214.871582,4233.333008,4188.717773,4051.794678,4196.410156,4197.94873
4193.846191,4233.333008,4196.410156,4194.871582,4201.538574,4195.897461,4194.871582,4195.384277,4212.820313,4217.94873,4184.615234,4046.666504,4196.922852,4193.846191
4193.333008,4236.922852,4197.94873,4196.922852,4198.461426,4195.897461,4197.94873,4195.897461,4211.794922,4221.025391,4190.256348,4054.358887,4200.512695,4201.538574
4188.717773,4241.538574,4198.974121,4198.974121,4198.974121,4196.410156,4196.922852,4196.410156,4209.230469,4241.538574,4190.769043,4049.230713,4192.820313,4196.922852
4184.615234,4226.666504,4196.922852,4196.922852,4198.974121,4196.410156,4194.871582,4195.897461,4206.153809,4236.410156,4189.743652,4051.794678,4191.281738,4198.974121
4175.384277,4210.769043,4198.461426,4195.897461,4196.922852,4194.871582,4197.436035,4196.410156,4206.153809,4217.436035,4188.205078,4052.307617,4195.897461,4198.461426
4172.820313,4230.256348,4197.436035,4196.410156,4198.974121,4194.871582,4195.384277,4198.461426,4207.692383,4223.07666,4188.717773,4052.307617,4197.94873,4196.922852
4175.384277,4233.333008,4199.487305,4201.538574,4197.94873,4200,4196.922852,4198.461426,4205.641113,4224.102539,4189.230469,4051.281982,4195.384277,4196.922852
4177.436035,4224.102539,4195.384277,4198.461426,4195.384277,4195.384277,4194.871582,4196.922852,4212.307617,4225.12793,4187.179199,4050.256348,4197.94873,4196.410156
4168.205078,4217.94873,4195.897461,4196.410156,4194.358887,4195.897461,4196.410156,4197.436035,4210.256348,4227.179199,4184.102539,4053.333252,4196.410156,4197.436035
4163.589844,4225.641113,4194.871582,4195.897461,4196.922852,4197.94873,4196.410156,4197.94873,4204.102539,4227.692383,4181.538574,4051.281982,4196.410156,4194.871582
4162.563965,4217.436035,4196.922852,4198.974121,4197.94873,4195.897461,4196.922852,4196.410156,4205.12793,4229.230469,4186.153809,4049.743408,4198.974121,4194.871582
4165.12793,4217.436035,4198.461426,4200,4198.461426,4193.333008,4197.94873,4196.410156,4209.743652,4232.820313,4189.230469,4050.769043,4195.897461,4197.436035
4164.615234,4228.717773,4194.358887,4196.410156,4198.461426,4193.333008,4195.384277,4195.897461,4211.281738,4231.281738,4185.641113,4049.230713,4193.846191,4193.846191
4164.102539,4222.05127,4196.922852,4196.410156,4197.436035,4195.897461,4193.846191,4195.897461,4212.307617,4223.589844,4185.12793,4049.743408,4193.846191,4190.256348
4169.743652,4221.025391,4196.922852,4197.436035,4198.461426,4195.897461,4194.358887,4195.897461,4216.922852,4231.794922,4186.666504,4051.281982,4195.897461,4193.846191
4179.487305,4218.974121,4200,4202.563965,4196.922852,4197.94873,4198.461426,4196.410156,4211.281738,4232.307617,4186.153809,4051.281982,4193.333008,4198.974121
4191.794922,4234.871582,4196.410156,4196.410156,4198.974121,4194.871582,4194.358887,4196.410156,4210.769043,4228.205078,4185.641113,4049.230713,4198.461426,4197.436035
4186.153809,4231.794922,4198.974121,4195.897461,4201.538574,4196.410156,4196.922852,4200,4206.666504,4223.589844,4188.205078,4051.281982,4196.922852,4197.94873
4178.461426,4225.641113,4193.333008,4197.94873,4203.07666,4193.846191,4195.897461,4200,4209.230469,4234.358887,4188.717773,4049.743408,4196.922852,4196.410156
4172.820313,4208.205078,4198.974121,4202.563965,4197.94873,4196.922852,4196.922852,4200,4210.769043,4232.820313,4187.692383,4049.230713,4197.436035,4197.436035
4175.384277,4239.487305,4196.922852,4195.897461,4200,4196.410156,4194.871582,4196.922852,4217.436035,4233.846191,4189.230469,4047.692139,4201.538574,4199.487305
4167.179199,4240,4197.94873,4194.358887,4201.538574,4196.410156,4198.461426,4196.410156,4209.230469,4226.666504,4190.256348,4049.743408,4196.410156,4200.512695
4172.307617,4220,4194.871582,4196.410156,4200,4194.358887,4195.897461,4196.922852,4204.102539,4228.205078,4187.692383,4049.743408,4195.384277,4197.94873
4171.794922,4203.07666,4201.025391,4200.512695,4198.461426,4198.461426,4196.922852,4197.436035,4205.12793,4224.615234,4187.692383,4050.256348,4194.358887,4199.487305
4167.692383,4225.641113,4196.410156,4196.922852,4205.641113,4196.922852,4196.922852,4195.897461,4211.794922,4229.230469,4187.692383,4049.743408,4193.846191,4200
4165.641113,4227.179199,4195.384277,4195.897461,4205.12793,4194.871582,4197.94873,4195.384277,4208.205078,4225.641113,4185.12793,4050.769043,4192.307617,4193.333008
4167.692383,4221.025391,4196.922852,4195.897461,4201.025391,4195.384277,4194.871582,4196.922852,4203.589844,4213.333008,4185.641113,4051.794678,4197.436035,4193.846191
4161.538574,4213.846191,4197.436035,4196.410156,4200,4198.461426,4195.384277,4199.487305,4202.563965,4210.256348,4186.666504,4049.230713,4193.846191,4197.94873
4165.12793,4208.717773,4193.333008,4194.358887,4201.538574,4197.94873,4195.384277,4199.487305,4202.563965,4224.615234,4185.12793,4048.717773,4185.12793,4193.846191
4174.871582,4205.641113,4190.769043,4193.846191,4201.538574,4195.384277,4196.922852,4198.974121,4199.487305,4228.717773,4186.153809,4051.794678,4187.179199,4190.769043
4169.230469,4197.94873,4198.461426,4200.512695,4193.333008,4196.410156,4200,4202.563965,4194.358887,4210.256348,4190.256348,4058.461426,4191.281738,4202.05127
4168.717773,4205.641113,4201.025391,4204.615234,4191.281738,4194.871582,4196.410156,4202.05127,4196.922852,4201.025391,4188.717773,4056.923096,4190.769043,4205.641113
4186.666504,4249.230469,4181.025391,4192.307617,4207.179199,4186.666504,4186.153809,4187.692383,4213.333008,4222.05127,4175.384277,4025.128174,4191.794922,4172.820313
4156.410156,4149.230469,4219.487305,4212.307617,4189.743652,4205.12793,4210.256348,4207.179199,4186.153809,4197.94873,4205.12793,4087.692139,4188.717773,4228.717773
4159.487305,4132.307617,4241.538574,4222.05127,4179.487305,4213.846191,4220,4216.410156,4177.94873,4197.94873,4209.743652,4108.205078,4185.12793,4250.769043
4205.12793,4262.05127,4190.769043,4193.333008,4207.692383,4191.794922,4189.743652,4193.846191,4214.358887,4238.974121,4181.538574,4040.512695,4194.871582,4182.05127
4213.333008,4296.410156,4172.820313,4187.179199,4221.025391,4187.179199,4183.589844,4182.563965,4221.025391,4233.333008,4175.897461,4020,4198.974121,4159.487305
4183.07666,4223.589844,4203.07666,4202.05127,4206.153809,4201.025391,4198.974121,4198.974121,4202.563965,4212.820313,4194.871582,4064.102539,4197.436035,4206.153809
4185.12793,4228.205078,4206.153809,4200.512695,4207.179199,4201.538574,4197.94873,4203.07666,4206.666504,4231.281738,4190.256348,4059.487061,4196.410156,4206.153809
4195.897461,4273.846191,4179.487305,4188.205078,4219.487305,4189.230469,4187.692383,4194.358887,4223.589844,4254.871582,4179.487305,4032.307617,4196.922852,4180.512695
4181.538574,4216.410156,4201.025391,4201.538574,4207.179199,4196.922852,4199.487305,4202.05127,4206.153809,4221.025391,4190.256348,4060,4190.256348,4204.615234
4194.358887,4240.512695,4196.410156,4193.846191,4208.205078,4194.871582,4192.820313,4197.436035,4208.717773,4225.641113,4184.102539,4049.230713,4201.025391,4194.358887
4189.230469,4232.307617,4196.922852,4198.461426,4207.692383,4197.436035,4195.897461,4198.461426,4203.589844,4227.179199,4186.153809,4051.794678,4203.07666,4196.410156
4185.641113,4230.769043,4193.333008,4199.487305,4206.666504,4194.871582,4195.384277,4198.974121,4204.615234,4228.205078,4188.205078,4051.281982,4196.410156,4196.922852
4176.410156,4224.615234,4196.410156,4198.974121,4201.538574,4195.384277,4195.384277,4199.487305,4203.07666,4222.05127,4187.692383,4049.743408,4190.769043,4193.333008
4169.743652,4228.717773,4198.974121,4198.974121,4202.563965,4197.436035,4196.410156,4199.487305,4200.512695,4214.358887,4187.179199,4053.845947,4193.846191,4195.897461
4162.05127,4224.102539,4198.461426,4197.436035,4206.153809,4196.410156,4194.871582,4200.512695,4202.563965,4203.07666,4185.12793,4053.333252,4193.846191,4194.871582
4166.666504,4222.05127,4198.974121,4197.436035,4206.153809,4194.358887,4193.846191,4200,4206.153809,4211.281738,4188.205078,4053.845947,4193.846191,4194.358887
4169.230469,4232.307617,4195.384277,4198.974121,4206.666504,4194.358887,4196.922852,4198.974121,4209.230469,4237.436035,4190.256348,4051.281982,4192.307617,4193.333008
4165.641113,4229.230469,4197.436035,4197.436035,4205.641113,4194.871582,4196.410156,4200.512695,4209.230469,4235.384277,4189.743652,4052.307617,4189.743652,4197.436035
4164.102539,4224.615234,4196.922852,4195.384277,4205.12793,4193.846191,4191.281738,4200,4203.589844,4211.281738,4187.179199,4052.307617,4191.281738,4196.922852
4166.153809,4224.102539,4197.436035,4196.922852,4209.230469,4194.358887,4192.307617,4198.461426,4202.05127,4209.230469,4186.153809,4050.769043,4188.205078,4196.410156
4166.153809,4220.512695,4194.871582,4194.871582,4210.769043,4193.846191,4194.871582,4200.512695,4209.230469,4221.538574,4188.717773,4051.281982,4187.179199,4196.410156
4159.487305,4206.666504,4197.94873,4197.436035,4204.102539,4196.922852,4197.436035,4201.538574,4207.692383,4214.871582,4187.692383,4053.333252,4186.153809,4195.897461
4148.205078,4211.794922,4193.846191,4197.94873,4207.179199,4198.461426,4194.358887,4198.974121,4205.12793,4210.256348,4186.666504,4052.820313,4187.692383,4195.384277
4137.94873,4203.589844,4196.410156,4195.897461,4211.794922,4198.974121,4195.384277,4197.436035,4200.512695,4204.615234,4188.205078,4047.692139,4185.12793,4195.384277
4143.07666,4199.487305,4195.897461,4192.307617,4207.692383,4195.384277,4194.871582,4199.487305,4203.07666,4202.563965,4189.230469,4048.717773,4187.692383,4194.871582
4148.205078,4200.512695,4197.94873,4197.94873,4203.07666,4198.974121,4198.974121,4201.538574,4207.179199,4205.12793,4188.205078,4053.333252,4187.692383,4194.871582
4147.179199,4219.487305,4194.358887,4197.94873,4208.205078,4196.410156,4196.922852,4200,4214.358887,4229.230469,4190.256348,4053.333252,4192.820313,4198.461426
4142.563965,4219.487305,4196.410156,4198.974121,4212.307617,4193.846191,4197.436035,4197.436035,4212.307617,4235.897461,4189.743652,4048.717773,4196.922852,4196.922852
4145.641113,4233.333008,4195.384277,4198.461426,4216.410156,4192.820313,4194.871582,4197.94873,4214.871582,4230.769043,4187.692383,4051.281982,4198.974121,4196.922852
4144.102539,4229.230469,4200,4201.025391,4218.461426,4195.384277,4195.897461,4198.974121,4215.897461,4232.307617,4186.153809,4053.845947,4192.820313,4196.922852
4150.769043,4232.820313,4198.461426,4200,4225.641113,4196.922852,4195.897461,4198.974121,4220,4246.666504,4186.666504,4054.358887,4195.384277,4194.871582
4164.615234,4254.358887,4197.436035,4200,4237.436035,4200.512695,4196.922852,4199.487305,4224.102539,4245.12793,4187.179199,4050.769043,4201.538574,4193.846191
4179.487305,4275.384277,4195.897461,4200.512695,4242.05127,4200.512695,4193.846191,4199.487305,4228.717773,4241.538574,4187.692383,4048.717773,4205.12793,4196.410156
4180.512695,4260,4195.384277,4201.025391,4239.487305,4198.461426,4193.846191,4199.487305,4225.12793,4238.461426,4188.717773,4050.256348,4202.563965,4194.871582
4178.974121,4247.179199,4195.384277,4201.025391,4238.974121,4198.974121,4196.922852,4198.974121,4218.461426,4236.922852,4187.692383,4053.845947,4201.025391,4194.871582
4178.461426,4247.692383,4195.897461,4201.025391,4235.384277,4196.922852,4197.94873,4199.487305,4216.410156,4232.307617,4185.641113,4052.820313,4199.487305,4196.410156
4181.538574,4246.153809,4200,4202.563965,4232.820313,4194.358887,4197.436035,4201.025391,4220,4229.230469,4187.692383,4052.307617,4198.974121,4196.922852
4185.12793,4250.769043,4197.436035,4201.025391,4238.461426,4195.897461,4197.94873,4202.05127,4227.179199,4247.692383,4190.256348,4054.358887,4204.615234,4193.333008
4188.205078,4258.461426,4201.025391,4201.538574,4243.589844,4197.94873,4197.436035,4199.487305,4230.256348,4264.615234,4188.205078,4055.897217,4211.794922,4194.358887
4192.820313,4280,4199.487305,4201.538574,4247.692383,4196.410156,4193.846191,4198.461426,4230.769043,4266.153809,4187.692383,4052.820313,4216.922852,4195.897461
4193.333008,4282.05127,4200.512695,4202.563965,4246.666504,4199.487305,4197.436035,4199.487305,4225.641113,4252.820313,4189.230469,4052.307617,4215.384277,4193.846191
4201.025391,4280.512695,4197.94873,4198.461426,4246.666504,4198.974121,4195.384277,4199.487305,4230.769043,4254.871582,4190.256348,4055.384521,4216.922852,4192.307617
4206.666504,4269.230469,4201.025391,4201.538574,4245.12793,4197.94873,4194.871582,4200,4230.769043,4258.974121,4189.743652,4054.358887,4213.846191,4193.846191
4194.358887,4257.436035,4196.922852,4203.07666,4240.512695,4194.358887,4195.384277,4200,4221.538574,4251.281738,4186.666504,4050.256348,4209.743652,4194.358887
4173.846191,4230.256348,4197.94873,4203.589844,4231.281738,4196.410156,4198.461426,4200.512695,4208.205078,4226.153809,4184.615234,4052.820313,4203.07666,4193.333008
4177.94873,4233.333008,4194.871582,4201.025391,4231.281738,4196.410156,4194.358887,4201.025391,4211.794922,4220,4188.205078,4055.897217,4203.07666,4193.333008
4190.769043,4243.589844,4198.461426,4203.589844,4234.871582,4196.922852,4195.897461,4200,4212.820313,4235.897461,4190.769043,4050.769043,4205.641113,4194.358887
4194.871582,4249.743652,4196.922852,4200.512695,4236.410156,4195.384277,4195.384277,4199.487305,4213.846191,4251.794922,4189.230469,4050.256348,4211.281738,4194.871582
4194.871582,4245.641113,4197.94873,4198.974121,4236.410156,4197.94873,4197.436035,4200.512695,4218.461426,4245.641113,4187.179199,4054.871582,4209.743652,4194.358887
4202.05127,4257.436035,4198.974121,4195.384277,4241.025391,4196.922852,4196.410156,4200,4225.12793,4240.512695,4186.666504,4055.384521,4210.769043,4196.410156
4202.563965,4254.358887,4201.538574,4194.358887,4245.12793,4195.897461,4196.410156,4198.461426,4224.615234,4247.179199,4188.205078,4052.820313,4210.769043,4196.922852
4204.615234,4261.025391,4196.922852,4197.436035,4247.692383,4195.897461,4196.922852,4199.487305,4228.205078,4258.974121,4192.820313,4056.410156,4211.281738,4197.436035
4201.538574,4274.358887,4196.410156,4199.487305,4245.641113,4195.384277,4198.461426,4200.512695,4230.769043,4255.384277,4190.256348,4055.897217,4211.794922,4196.410156
4206.666504,4262.05127,4201.538574,4195.897461,4242.05127,4195.384277,4193.846191,4200.512695,4224.615234,4250.256348,4187.692383,4055.384521,4210.256348,4195.897461
4223.589844,4251.794922,4199.487305,4194.871582,4243.07666,4198.461426,4189.743652,4201.025391,4222.05127,4249.743652,4190.769043,4059.487061,4210.256348,4193.846191
4232.307617,4284.615234,4197.94873,4197.436035,4248.717773,4199.487305,4195.384277,4198.974121,4228.205078,4250.769043,4192.307617,4061.025635,4215.384277,4193.846191
4223.07666,4307.179199,4196.922852,4194.358887,4250.769043,4195.384277,4196.922852,4200,4234.358887,4265.641113,4192.307617,4056.923096,4224.102539,4192.820313
4212.820313,4265.641113,4202.05127,4194.871582,4244.102539,4197.94873,4193.333008,4201.025391,4229.743652,4267.692383,4191.281738,4054.871582,4217.436035,4193.333008
4201.025391,4235.897461,4199.487305,4194.871582,4236.922852,4197.94873,4192.307617,4193.333008,4221.538574,4244.102539,4185.641113,4052.820313,4202.563965,4195.897461
4183.07666,4229.230469,4201.025391,4194.871582,4234.358887,4194.871582,4199.487305,4191.794922,4211.794922,4221.538574,4184.102539,4051.794678,4196.410156,4197.94873
4184.102539,4239.487305,4195.897461,4194.358887,4238.974121,4192.307617,4197.436035,4201.025391,4215.384277,4235.897461,4191.794922,4053.845947,4205.12793,4198.461426
4189.230469,4229.743652,4198.974121,4198.461426,4241.025391,4197.94873,4195.384277,4203.07666,4216.410156,4242.563965,4191.794922,4055.384521,4202.563965,4197.94873
4186.666504,4216.410156,4196.922852,4192.820313,4240.512695,4197.94873,4192.307617,4198.461426,4217.436035,4234.871582,4186.666504,4056.410156,4198.974121,4194.358887
4180.512695,4216.410156,4196.922852,4193.846191,4238.461426,4198.974121,4196.410156,4200,4216.922852,4229.743652,4190.256348,4056.923096,4200.512695,4191.281738
4180,4242.05127,4193.333008,4196.922852,4240,4197.436035,4196.922852,4198.974121,4219.487305,4243.07666,4193.333008,4058.974365,4201.025391,4193.333008
4176.922852,4226.153809,4200.512695,4198.461426,4237.436035,4199.487305,4197.94873,4195.384277,4216.922852,4245.641113,4189.743652,4060.512695,4196.410156,4194.871582
4179.487305,4205.12793,4200.512695,4195.384277,4236.922852,4198.974121,4195.384277,4197.94873,4217.94873,4236.410156,4190.256348,4058.974365,4199.487305,4194.358887
4180.512695,4212.307617,4197.436035,4196.922852,4236.410156,4197.436035,4197.94873,4198.461426,4217.94873,4229.230469,4192.820313,4058.461426,4199.487305,4194.871582
4185.12793,4236.922852,4194.871582,4197.436035,4235.897461,4193.846191,4197.436035,4197.436035,4223.589844,4241.025391,4190.769043,4061.53833,4198.461426,4196.922852
4190.769043,4235.384277,4197.436035,4197.436035,4237.436035,4194.358887,4195.384277,4198.461426,4226.153809,4249.743652,4189.743652,4058.461426,4202.05127,4198.461426
4196.410156,4234.871582,4199.487305,4196.922852,4241.025391,4197.436035,4194.358887,4200,4227.692383,4249.743652,4191.281738,4053.333252,4205.12793,4197.94873
4197.94873,4243.589844,4198.974121,4194.871582,4240,4195.384277,4197.436035,4200.512695,4228.205078,4247.692383,4191.794922,4056.923096,4203.07666,4194.871582
4202.563965,4252.307617,4199.487305,4195.384277,4236.922852,4192.307617,4198.461426,4198.974121,4226.153809,4244.615234,4191.794922,4060.512695,4203.07666,4196.922852
4202.563965,4242.05127,4197.94873,4194.358887,4238.461426,4193.333008,4195.384277,4199.487305,4227.179199,4247.692383,4190.769043,4057.435791,4206.666504,4197.436035
4201.025391,4223.07666,4200.512695,4192.820313,4240.512695,4196.922852,4197.436035,4201.025391,4228.717773,4248.205078,4191.281738,4058.974365,4203.589844,4194.358887
4201.025391,4233.846191,4196.410156,4193.333008,4242.05127,4196.922852,4200,4196.922852,4229.230469,4243.589844,4192.307617,4060.512695,4202.05127,4194.358887
4194.871582,4239.487305,4196.410156,4197.94873,4243.07666,4197.436035,4198.974121,4193.333008,4226.153809,4234.871582,4189.743652,4060,4200.512695,4198.974121
4193.333008,4235.897461,4191.794922,4195.897461,4241.538574,4196.922852,4192.820313,4197.94873,4227.179199,4245.12793,4187.179199,4061.025635,4200.512695,4196.922852
4200.512695,4227.179199,4197.94873,4196.410156,4238.974121,4198.974121,4196.410156,4202.05127,4225.12793,4251.281738,4190.256348,4064.102539,4198.974121,4195.384277
4204.615234,4237.436035,4197.436035,4196.922852,4242.563965,4196.922852,4197.436035,4200,4226.666504,4249.743652,4191.794922,4060.512695,4203.589844,4196.922852
4195.897461,4223.589844,4198.974121,4201.025391,4242.563965,4197.436035,4197.94873,4197.436035,4224.102539,4243.589844,4189.743652,4061.025635,4202.563965,4197.94873
4192.820313,4221.538574,4192.820313,4201.025391,4238.461426,4197.436035,4194.871582,4198.461426,4222.05127,4243.589844,4190.769043,4063.076904,4201.538574,4196.922852
4196.922852,4216.922852,4198.974121,4203.07666,4234.871582,4197.94873,4197.436035,4200,4219.487305,4235.384277,4190.769043,4060.512695,4200,4198.461426
4202.05127,4214.871582,4197.94873,4199.487305,4236.922852,4194.358887,4195.897461,4199.487305,4226.153809,4235.897461,4189.230469,4057.435791,4203.07666,4200
4198.974121,4220.512695,4197.94873,4200.512695,4237.94873,4195.897461,4198.461426,4197.94873,4225.12793,4242.563965,4190.769043,4060,4205.12793,4199.487305
4197.94873,4237.94873,4196.922852,4201.025391,4238.974121,4196.922852,4198.974121,4198.461426,4218.461426,4251.281738,4191.281738,4063.5896,4203.589844,4195.897461
4200.512695,4230.256348,4200.512695,4200,4236.922852,4197.94873,4197.436035,4199.487305,4214.871582,4243.589844,4189.743652,4061.025635,4199.487305,4193.333008
4207.179199,4224.102539,4198.974121,4197.94873,4234.358887,4198.461426,4195.897461,4200.512695,4217.94873,4231.281738,4191.281738,4060,4202.563965,4194.871582
4210.769043,4229.230469,4200,4198.974121,4234.358887,4198.461426,4197.94873,4201.025391,4216.410156,4231.281738,4192.820313,4063.076904,4207.179199,4196.922852
4209.743652,4233.846191,4200.512695,4198.974121,4233.846191,4199.487305,4197.94873,4200,4216.410156,4240.512695,4190.769043,4064.615234,4206.153809,4199.487305
4203.589844,4228.717773,4195.897461,4198.461426,4230.256348,4198.974121,4197.94873,4201.025391,4221.538574,4243.589844,4189.230469,4064.102539,4206.666504,4199.487305
4200.512695,4213.333008,4195.384277,4200.512695,4227.692383,4197.94873,4200,4201.025391,4220.512695,4236.922852,4189.230469,4066.153809,4206.666504,4196.922852
4202.05127,4213.333008,4196.410156,4198.461426,4230.256348,4197.94873,4198.461426,4198.974121,4219.487305,4232.820313,4189.230469,4066.666504,4205.12793,4196.922852
4202.563965,4227.692383,4199.487305,4197.94873,4228.717773,4198.974121,4197.94873,4200,4222.563965,4229.743652,4191.794922,4063.5896,4206.153809,4201.025391
4203.589844,4233.846191,4195.384277,4198.974121,4226.153809,4195.897461,4195.897461,4202.563965,4226.153809,4241.538574,4191.794922,4062.05127,4209.743652,4200
4206.153809,4218.461426,4198.461426,4202.05127,4223.589844,4197.94873,4196.410156,4202.563965,4223.589844,4252.307617,4189.230469,4066.153809,4208.717773,4196.922852
4211.281738,4235.897461,4198.974121,4201.025391,4225.12793,4201.025391,4196.922852,4200,4227.179199,4248.717773,4190.256348,4067.692139,4209.230469,4200
4212.820313,4248.205078,4204.102539,4204.102539,4228.717773,4201.538574,4201.538574,4198.974121,4226.666504,4236.410156,4192.820313,4067.692139,4207.692383,4203.589844
4218.461426,4249.743652,4197.94873,4202.05127,4233.846191,4197.94873,4198.461426,4200,4225.641113,4248.717773,4195.384277,4066.153809,4211.281738,4200
4225.641113,4238.461426,4201.025391,4201.025391,4236.922852,4202.05127,4200,4200.512695,4225.12793,4253.846191,4195.384277,4067.179443,4213.333008,4201.538574
4227.179199,4238.974121,4198.974121,4200,4240.512695,4201.025391,4198.974121,4199.487305,4231.281738,4247.179199,4193.333008,4069.743408,4211.281738,4204.615234
4217.94873,4235.897461,4200.512695,4203.07666,4236.922852,4198.974121,4199.487305,4199.487305,4226.153809,4243.589844,4191.794922,4071.281982,4206.153809,4200.512695
4214.871582,4236.410156,4197.436035,4198.974121,4230.256348,4199.487305,4198.461426,4199.487305,4222.563965,4246.153809,4192.820313,4068.205078,4208.205078,4195.384277
4212.820313,4218.461426,4200,4200,4226.666504,4202.05127,4201.025391,4198.461426,4221.025391,4233.846191,4191.794922,4066.153809,4207.179199,4200
4209.230469,4217.436035,4195.897461,4202.05127,4230.769043,4197.436035,4197.436035,4198.461426,4220,4234.358887,4189.743652,4067.692139,4207.179199,4202.05127
4207.179199,4222.563965,4197.436035,4205.12793,4233.846191,4197.436035,4195.897461,4201.025391,4217.94873,4236.922852,4189.230469,4071.281982,4207.692383,4197.94873
4215.384277,4222.563965,4200.512695,4204.615234,4229.743652,4198.974121,4197.436035,4200.512695,4220,4229.743652,4189.743652,4072.820313,4207.692383,4196.922852
4223.589844,4215.897461,4201.025391,4202.05127,4226.153809,4199.487305,4197.94873,4200,4222.563965,4240,4190.769043,4071.281982,4206.153809,4200.512695
4222.05127,4215.384277,4198.461426,4201.025391,4229.743652,4199.487305,4196.410156,4199.487305,4224.615234,4249.743652,4189.743652,4068.717773,4203.589844,4199.487305
4213.846191,4216.410156,4197.436035,4201.025391,4230.769043,4197.436035,4195.897461,4195.897461,4224.615234,4233.333008,4188.717773,4066.153809,4203.07666,4197.436035
4212.307617,4213.846191,4201.025391,4202.05127,4223.589844,4195.897461,4196.922852,4195.384277,4218.461426,4228.205078,4189.230469,4066.666504,4199.487305,4199.487305
4215.384277,4217.94873,4198.461426,4201.025391,4221.538574,4196.922852,4195.897461,4199.487305,4217.94873,4245.641113,4190.769043,4068.717773,4200,4197.94873
4209.230469,4217.94873,4198.461426,4201.025391,4226.666504,4199.487305,4197.94873,4200.512695,4217.94873,4240.512695,4190.256348,4067.692139,4201.538574,4195.897461
4200,4223.07666,4197.94873,4197.94873,4231.794922,4197.436035,4195.384277,4197.436035,4218.461426,4231.794922,4188.717773,4066.153809,4205.12793,4196.922852
4193.846191,4210.256348,4201.538574,4198.461426,4229.743652,4198.461426,4197.436035,4196.410156,4213.333008,4221.025391,4188.205078,4068.205078,4203.589844,4196.922852
4198.974121,4213.333008,4193.333008,4197.94873,4226.666504,4196.922852,4198.974121,4197.436035,4215.384277,4221.538574,4190.256348,4066.666504,4205.12793,4195.384277
4217.436035,4240,4196.410156,4200.512695,4235.384277,4201.025391,4200,4201.025391,4227.179199,4244.615234,4192.820313,4065.640869,4210.769043,4197.436035
4236.410156,4291.794922,4197.94873,4198.974121,4252.307617,4200,4191.794922,4201.538574,4245.641113,4274.358887,4192.307617,4066.153809,4222.05127,4195.897461
4243.589844,4305.12793,4198.461426,4200,4254.358887,4196.410156,4192.820313,4197.436035,4249.743652,4271.794922,4190.769043,4062.05127,4225.641113,4193.333008
4252.307617,4305.12793,4188.717773,4196.410156,4255.897461,4193.846191,4194.358887,4194.358887,4253.846191,4272.307617,4190.769043,4057.94873,4224.102539,4193.333008
4258.461426,4308.205078,4192.307617,4196.410156,4263.589844,4196.410156,4192.307617,4196.410156,4258.974121,4286.666504,4190.769043,4060,4221.538574,4192.307617
4254.871582,4322.05127,4191.794922,4194.358887,4265.641113,4193.333008,4185.641113,4194.358887,4263.07666,4288.717773,4188.205078,4056.923096,4224.615234,4185.12793
4249.230469,4328.205078,4190.769043,4192.820313,4260.512695,4192.307617,4188.205078,4188.717773,4265.641113,4278.974121,4184.615234,4051.281982,4226.666504,4181.538574
4258.974121,4342.563965,4186.666504,4191.281738,4265.12793,4192.820313,4188.717773,4188.717773,4273.846191,4297.436035,4184.102539,4049.230713,4229.230469,4181.025391
4271.281738,4338.461426,4186.153809,4192.820313,4272.307617,4194.358887,4186.666504,4191.794922,4271.794922,4310.256348,4184.102539,4050.256348,4230.769043,4182.563965
4275.384277,4333.846191,4184.615234,4191.794922,4271.281738,4193.333008,4184.102539,4191.281738,4268.205078,4292.820313,4182.563965,4048.717773,4230.769043,4180
4270.769043,4337.94873,4185.12793,4189.743652,4269.230469,4190.256348,4185.641113,4189.743652,4271.281738,4288.205078,4185.641113,4049.230713,4231.794922,4178.461426
4265.641113,4329.743652,4185.641113,4187.692383,4270.256348,4190.769043,4189.743652,4191.281738,4271.794922,4296.410156,4187.179199,4050.769043,4229.743652,4178.974121
4266.153809,4320.512695,4187.179199,4188.205078,4270.769043,4192.820313,4188.205078,4191.281738,4270.256348,4291.794922,4188.205078,4055.384521,4229.743652,4182.563965
4263.589844,4312.820313,4192.307617,4194.871582,4266.153809,4196.922852,4191.281738,4192.820313,4267.179199,4291.281738,4191.281738,4061.53833,4230.769043,4188.205078
4259.487305,4300.512695,4190.256348,4197.94873,4262.563965,4198.461426,4197.94873,4197.94873,4264.102539,4301.025391,4194.871582,4067.692139,4230.769043,4193.846191
4255.897461,4294.358887,4195.384277,4200,4261.025391,4198.974121,4199.487305,4199.487305,4260,4291.794922,4192.307617,4073.333252,4225.641113,4197.436035
4256.922852,4302.05127,4198.461426,4201.538574,4260,4198.461426,4193.846191,4199.487305,4260.512695,4278.461426,4192.307617,4077.94873,4225.641113,4198.461426
4256.410156,4279.487305,4203.07666,4205.12793,4256.410156,4202.563965,4200,4198.974121,4252.307617,4261.538574,4191.794922,4079.487061,4222.05127,4200
4253.333008,4268.717773,4197.94873,4200,4253.846191,4201.025391,4200.512695,4200.512695,4248.717773,4261.025391,4190.256348,4076.410156,4219.487305,4201.538574
4248.717773,4266.153809,4201.025391,4200.512695,4251.794922,4201.538574,4196.410156,4200,4245.641113,4266.153809,4191.794922,4074.358887,4217.436035,4201.538574
4249.743652,4276.410156,4198.974121,4200.512695,4256.410156,4200,4194.358887,4199.487305,4246.153809,4270.256348,4192.820313,4074.871582,4218.974121,4198.974121
4249.230469,4279.487305,4202.563965,4202.05127,4257.94873,4199.487305,4198.974121,4199.487305,4251.794922,4271.794922,4191.794922,4075.897217,4218.461426,4200
4245.641113,4288.717773,4197.94873,4199.487305,4256.922852,4197.94873,4196.410156,4200.512695,4256.922852,4280,4191.281738,4075.384521,4222.563965,4200.512695
4237.94873,4286.153809,4198.461426,4200.512695,4255.897461,4200.512695,4197.94873,4201.025391,4244.102539,4267.179199,4193.333008,4074.871582,4220.512695,4199.487305
4237.436035,4297.436035,4196.922852,4197.94873,4256.410156,4198.461426,4197.436035,4201.025391,4244.615234,4257.94873,4193.333008,4075.897217,4221.538574,4196.922852
4245.641113,4302.563965,4200.512695,4198.461426,4257.436035,4198.461426,4197.436035,4202.05127,4258.461426,4268.717773,4192.820313,4080,4227.179199,4199.487305
4260.512695,4317.94873,4198.974121,4198.974121,4268.205078,4199.487305,4195.897461,4200.512695,4269.743652,4289.743652,4194.871582,4080,4230.769043,4200.512695
4265.641113,4338.974121,4198.974121,4198.974121,4277.436035,4201.538574,4197.94873,4201.025391,4278.461426,4294.871582,4197.436035,4079.487061,4232.307617,4199.487305
4267.179199,4347.179199,4198.461426,4199.487305,4274.358887,4202.05127,4198.974121,4201.025391,4282.563965,4285.12793,4195.384277,4078.974365,4234.871582,4197.436035
4272.307617,4337.94873,4199.487305,4201.538574,4271.794922,4201.025391,4196.922852,4199.487305,4276.922852,4291.794922,4191.281738,4080.512695,4236.410156,4198.974121
4272.307617,4322.563965,4201.025391,4201.538574,4270.769043,4199.487305,4196.410156,4200,4273.846191,4304.615234,4189.230469,4078.974365,4231.794922,4199.487305
4260,4313.333008,4197.436035,4199.487305,4267.179199,4200,4196.922852,4197.94873,4273.846191,4289.743652,4191.794922,4079.487061,4228.205078,4196.922852
4248.205078,4308.717773,4198.974121,4201.025391,4264.102539,4202.563965,4197.436035,4195.897461,4267.692383,4269.230469,4194.358887,4080.512695,4227.179199,4195.897461
4246.153809,4307.692383,4200,4200,4265.12793,4198.461426,4195.384277,4199.487305,4269.743652,4283.07666,4192.820313,4080.512695,4231.281738,4200
4238.974121,4297.94873,4202.563965,4201.025391,4263.589844,4198.974121,4200,4201.025391,4263.589844,4285.12793,4188.717773,4081.025635,4228.717773,4201.538574
4233.846191,4305.641113,4196.922852,4197.94873,4261.025391,4201.538574,4199.487305,4198.974121,4254.871582,4271.281738,4190.256348,4082.563965,4226.153809,4200
4245.12793,4301.538574,4203.07666,4201.025391,4261.538574,4202.563965,4198.974121,4200,4261.538574,4272.820313,4192.820313,4082.563965,4227.179199,4199.487305
4258.461426,4310.256348,4203.589844,4200.512695,4268.717773,4196.922852,4195.384277,4201.025391,4277.436035,4294.871582,4193.333008,4080.512695,4231.794922,4197.436035
4256.410156,4322.05127,4204.102539,4202.563965,4269.230469,4199.487305,4197.94873,4198.974121,4272.307617,4292.820313,4192.307617,4080.512695,4231.794922,4197.436035
4260.512695,4337.94873,4196.410156,4200,4267.179199,4201.025391,4195.384277,4199.487305,4272.820313,4278.974121,4192.307617,4082.563965,4237.94873,4197.436035
4257.436035,4311.281738,4201.025391,4200,4267.179199,4200,4197.94873,4200,4275.897461,4277.94873,4190.769043,4086.153809,4234.358887,4198.461426
4238.461426,4281.025391,4200,4199.487305,4263.589844,4196.410156,4198.461426,4200,4264.102539,4277.436035,4188.205078,4082.563965,4222.05127,4198.461426
4226.153809,4270.256348,4200.512695,4202.05127,4253.333008,4200.512695,4199.487305,4201.025391,4248.717773,4249.743652,4188.717773,4080,4220,4199.487305
4234.358887,4279.487305,4197.436035,4200.512695,4254.871582,4201.538574,4197.436035,4201.025391,4258.461426,4248.717773,4192.307617,4082.563965,4228.717773,4197.436035
4239.487305,4270.769043,4200,4199.487305,4259.487305,4200,4199.487305,4200.512695,4262.563965,4271.794922,4192.820313,4086.153809,4224.102539,4197.94873
4237.436035,4277.94873,4200.512695,4198.974121,4256.922852,4200,4198.461426,4200.512695,4256.922852,4280,4189.743652,4083.5896,4217.436035,4200
4232.820313,4293.333008,4200.512695,4201.538574,4255.897461,4202.563965,4195.897461,4200,4260.512695,4266.666504,4190.256348,4082.05127,4223.07666,4200.512695
4234.871582,4287.179199,4200,4202.05127,4258.974121,4201.025391,4193.846191,4198.974121,4264.102539,4263.07666,4191.794922,4083.5896,4226.666504,4198.461426
4239.487305,4284.102539,4200,4200.512695,4257.436035,4198.974121,4193.846191,4200,4257.94873,4270.769043,4192.307617,4085.640869,4223.589844,4200
4233.333008,4298.974121,4200.512695,4201.025391,4258.974121,4201.538574,4196.922852,4203.07666,4258.461426,4274.871582,4192.820313,4086.666504,4221.538574,4200
4228.205078,4306.666504,4197.436035,4200.512695,4269.743652,4200.512695,4197.436035,4198.461426,4267.179199,4284.615234,4194.358887,4086.153809,4225.641113,4197.436035
4233.333008,4292.820313,4200,4200.512695,4266.666504,4201.025391,4198.461426,4193.333008,4265.641113,4285.641113,4192.820313,4084.102539,4227.692383,4196.922852
4235.384277,4293.333008,4200,4199.487305,4256.922852,4201.025391,4197.436035,4197.94873,4264.615234,4278.461426,4192.820313,4084.102539,4227.692383,4196.410156
4231.794922,4291.794922,4201.538574,4203.589844,4258.461426,4205.641113,4196.922852,4201.538574,4260,4256.410156,4193.333008,4083.076904,4225.12793,4195.897461
4238.974121,4298.461426,4195.897461,4200,4265.12793,4203.07666,4193.846191,4199.487305,4264.102539,4264.102539,4193.846191,4084.102539,4228.717773,4197.436035
4241.538574,4286.666504,4202.563965,4198.974121,4264.102539,4200,4197.94873,4199.487305,4268.717773,4290.769043,4190.769043,4085.128174,4228.717773,4201.025391
4233.333008,4285.12793,4201.025391,4200,4265.641113,4200.512695,4196.922852,4201.538574,4272.307617,4295.897461,4190.256348,4083.076904,4227.692383,4202.05127
4237.94873,4306.153809,4200.512695,4204.102539,4268.717773,4205.641113,4199.487305,4202.05127,4275.384277,4275.897461,4192.307617,4084.615234,4229.743652,4201.025391
4268.717773,4349.743652,4196.922852,4200,4275.384277,4203.07666,4197.94873,4203.589844,4283.07666,4289.230469,4194.358887,4087.692139,4240,4198.974121
4276.922852,4350.769043,4202.563965,4198.461426,4282.563965,4204.102539,4195.897461,4201.025391,4282.563965,4309.230469,4193.333008,4086.153809,4243.07666,4200
4273.333008,4363.07666,4198.461426,4197.94873,4292.820313,4204.102539,4193.846191,4198.461426,4289.230469,4313.333008,4193.846191,4086.666504,4245.641113,4200
4304.615234,4401.538574,4202.05127,4202.05127,4291.281738,4203.589844,4197.436035,4202.563965,4304.615234,4334.871582,4195.384277,4093.845947,4255.384277,4200
4345.12793,4435.897461,4202.563965,4202.563965,4287.692383,4204.615234,4196.410156,4204.102539,4321.538574,4365.641113,4196.410156,4091.794678,4265.12793,4198.461426
4345.12793,4441.025391,4200.512695,4202.563965,4306.153809,4208.717773,4194.871582,4201.538574,4332.820313,4355.384277,4198.461426,4090.769043,4267.692383,4199.487305
4331.794922,4466.153809,4200,4200.512695,4332.820313,4208.205078,4194.358887,4200,4338.461426,4352.307617,4197.94873,4095.384521,4275.897461,4198.974121
4338.974121,4509.743652,4203.589844,4201.538574,4330.256348,4207.179199,4195.384277,4201.025391,4337.94873,4401.025391,4196.410156,4096.922852,4283.589844,4199.487305
4363.07666,4541.538574,4202.563965,4204.615234,4322.563965,4208.205078,4196.410156,4201.025391,4354.358887,4435.897461,4195.384277,4094.358887,4287.179199,4197.94873
4376.922852,4582.563965,4200.512695,4206.666504,4334.871582,4209.230469,4194.358887,4200.512695,4370.769043,4428.717773,4200.512695,4096.410156,4297.436035,4197.94873
4377.94873,4610.256348,4203.07666,4209.230469,4333.333008,4210.256348,4194.358887,4203.07666,4356.922852,4417.435547,4201.538574,4096.410156,4305.641113,4197.94873
4385.641113,4609.230469,4199.487305,4207.179199,4326.153809,4208.717773,4194.358887,4203.07666,4344.102539,4420.512695,4197.94873,4096.410156,4306.666504,4196.922852
4376.922852,4614.358887,4201.025391,4210.256348,4331.794922,4210.769043,4195.897461,4199.487305,4332.307617,4415.897461,4197.436035,4097.436035,4293.333008,4195.897461
4339.487305,4682.05127,4198.461426,4211.281738,4346.153809,4210.769043,4192.307617,4201.025391,4315.897461,4434.358887,4200.512695,4099.487305,4288.717773,4196.922852
4320,4720,4201.025391,4210.256348,4345.641113,4210.769043,4193.333008,4202.05127,4310.256348,4440,4200,4100.512695,4297.436035,4197.436035
4354.871582,4745.641113,4196.922852,4208.205078,4340.512695,4208.205078,4192.307617,4200,4343.589844,4426.153809,4204.102539,4101.025391,4312.307617,4200.512695
4375.897461,4804.102539,4199.487305,4215.384277,4340.512695,4208.717773,4195.897461,4200.512695,4355.897461,4431.281738,4208.205078,4102.05127,4320.512695,4200.512695
4376.410156,4874.871582,4197.436035,4214.871582,4342.05127,4205.641113,4195.897461,4202.05127,4348.205078,4448.717773,4205.12793,4105.641113,4334.871582,4195.384277
4389.230469,4895.384277,4204.615234,4215.897461,4346.666504,4209.743652,4197.94873,4203.589844,4362.05127,4464.615234,4204.102539,4109.230469,4344.615234,4197.436035
4409.743652,4913.846191,4203.589844,4215.384277,4354.871582,4209.743652,4194.358887,4204.615234,4384.615234,4491.794922,4210.256348,4107.692383,4351.794922,4202.05127
4407.692383,4921.538574,4202.563965,4216.410156,4351.794922,4207.692383,4195.384277,4202.563965,4383.07666,4476.922852,4208.717773,4107.692383,4357.435547,4199.487305
4387.179199,4935.897461,4199.487305,4218.461426,4346.153809,4205.641113,4194.358887,4201.025391,4389.743652,4465.641113,4205.12793,4111.281738,4355.897461,4193.846191
4394.358887,4969.230469,4204.615234,4225.641113,4347.692383,4210.769043,4196.410156,4204.102539,4414.358887,4502.563965,4209.743652,4115.897461,4352.820313,4197.436035
4404.102539,5006.666504,4203.07666,4222.563965,4343.07666,4212.307617,4195.384277,4203.589844,4414.871582,4523.07666,4212.307617,4113.333008,4362.563965,4197.94873
4305.12793,5029.743652,4200,4216.410156,4344.102539,4208.717773,4195.897461,4200.512695,4391.281738,4511.794922,4210.256348,4111.281738,4375.384277,4198.461426
4134.871582,5059.486816,4200.512695,4218.461426,4370.256348,4206.666504,4195.897461,4201.538574,4388.717773,4520,4209.743652,4113.846191,4379.487305,4198.461426
4070.256348,5027.692383,4202.563965,4222.563965,4363.589844,4209.230469,4193.846191,4202.05127,4398.974121,4509.743652,4211.794922,4113.846191,4375.384277,4195.897461
4081.53833,4983.589844,4201.538574,4220.512695,4337.94873,4207.179199,4195.384277,4202.05127,4398.461426,4505.12793,4214.871582,4111.794922,4375.897461,4195.897461
4045.128174,5023.589844,4197.94873,4215.897461,4354.871582,4202.05127,4194.358887,4201.538574,4396.410156,4530.769043,4216.410156,4118.461426,4380.512695,4200
4004.102539,5060.512695,4201.538574,4217.436035,4367.179199,4203.07666,4194.358887,4200.512695,4392.820313,4514.871582,4213.333008,4121.025391,4371.281738,4198.461426
4008.717773,5014.871582,4202.05127,4216.922852,4339.487305,4205.12793,4193.846191,4200.512695,4386.153809,4502.05127,4214.358887,4115.384277,4364.102539,4196.922852
4003.076904,4948.717773,4205.12793,4216.922852,4322.05127,4206.666504,4195.897461,4201.025391,4372.307617,4505.641113,4215.384277,4115.897461,4362.05127,4199.487305
3994.871582,4948.205078,4202.05127,4215.897461,4334.871582,4204.102539,4194.358887,4200.512695,4368.205078,4494.358887,4215.897461,4120,4362.563965,4201.025391
3984.615234,4948.205078,4203.589844,4219.487305,4337.436035,4205.641113,4199.487305,4201.538574,4364.102539,4478.974121,4215.384277,4120,4358.974121,4197.436035
3981.025635,4952.820313,4198.974121,4216.410156,4332.820313,4205.12793,4199.487305,4202.05127,4365.12793,4475.384277,4216.922852,4123.07666,4360.512695,4196.410156
3993.845947,4935.384277,4202.563965,4216.410156,4322.563965,4206.153809,4197.436035,4201.025391,4357.435547,4455.897461,4217.94873,4125.641113,4359.487305,4197.436035
4006.666504,4912.820313,4199.487305,4214.358887,4315.384277,4202.05127,4193.846191,4202.563965,4351.794922,4449.743652,4217.94873,4124.615234,4363.07666,4196.922852
4010.769043,4893.846191,4201.025391,4218.461426,4321.538574,4205.641113,4196.410156,4204.102539,4354.358887,4458.461426,4217.436035,4125.641113,4365.641113,4196.922852
4024.615234,4896.922852,4198.461426,4217.436035,4329.230469,4205.641113,4195.384277,4201.538574,4361.538574,4461.025391,4216.410156,4127.179199,4368.717773,4195.897461
4026.153809,4873.846191,4202.563965,4216.410156,4322.05127,4202.563965,4197.94873,4201.025391,4354.358887,4449.743652,4216.410156,4126.666504,4368.205078,4195.384277
4014.871582,4824.102539,4199.487305,4213.846191,4314.358887,4201.025391,4195.897461,4201.025391,4348.717773,4442.563965,4213.333008,4125.12793,4364.615234,4193.846191
3992.307617,4757.94873,4200,4214.871582,4301.538574,4202.563965,4197.436035,4199.487305,4336.922852,4421.025391,4207.179199,4126.666504,4350.769043,4193.846191
3985.640869,4750.769043,4202.05127,4214.871582,4289.230469,4198.461426,4198.974121,4200,4330.769043,4415.384277,4208.717773,4129.230469,4345.641113,4195.897461
4009.230713,4779.487305,4203.589844,4214.871582,4291.281738,4198.461426,4198.974121,4203.589844,4342.05127,4429.743652,4211.794922,4131.281738,4354.871582,4196.410156
4017.435791,4761.025391,4203.07666,4213.846191,4296.922852,4201.025391,4198.461426,4201.538574,4338.461426,4413.846191,4205.641113,4128.717773,4354.871582,4194.871582
4000,4722.05127,4202.563965,4210.769043,4292.820313,4199.487305,4200.512695,4198.461426,4324.102539,4400,4201.538574,4129.743652,4344.615234,4194.871582
4017.435791,4735.897461,4205.12793,4210.256348,4296.410156,4200,4202.563965,4203.07666,4340,4433.333008,4210.256348,4134.358887,4353.333008,4196.922852
4070.769043,4785.12793,4203.07666,4211.794922,4323.07666,4201.538574,4199.487305,4206.666504,4373.846191,4472.820313,4217.436035,4134.871582,4374.871582,4196.922852
4105.641113,4796.922852,4202.563965,4214.358887,4344.102539,4202.05127,4199.487305,4206.666504,4388.205078,4486.666504,4216.410156,4135.897461,4376.410156,4196.410156
4129.743652,4808.205078,4201.025391,4209.743652,4352.820313,4202.563965,4197.94873,4206.153809,4401.538574,4516.410156,4215.897461,4139.487305,4379.487305,4198.461426
4153.333008,4812.307617,4207.179199,4208.205078,4353.846191,4205.641113,4198.974121,4206.666504,4411.794922,4522.563965,4212.307617,4138.974121,4382.05127,4198.461426
4143.07666,4770.769043,4203.07666,4208.205078,4344.615234,4203.07666,4195.384277,4203.589844,4401.538574,4495.384277,4207.179199,4135.384277,4369.743652,4195.384277
4105.12793,4671.794922,4203.07666,4210.769043,4324.615234,4203.07666,4197.436035,4203.07666,4365.12793,4454.358887,4202.05127,4136.410156,4348.717773,4193.333008
4097.436035,4628.205078,4202.05127,4206.666504,4318.974121,4201.025391,4196.922852,4205.641113,4350.256348,4436.410156,4201.538574,4138.974121,4344.615234,4195.384277
4098.461426,4609.743652,4209.743652,4206.153809,4318.461426,4204.102539,4199.487305,4206.153809,4347.179199,4430.256348,4201.538574,4138.461426,4335.897461,4195.897461
4082.563965,4563.589844,4203.07666,4202.05127,4302.05127,4201.538574,4196.922852,4203.07666,4334.871582,4420.512695,4198.461426,4140,4322.563965,4195.384277
4079.487061,4526.666504,4201.025391,4201.538574,4290.769043,4201.025391,4200.512695,4203.07666,4327.179199,4406.666504,4196.922852,4141.025391,4319.487305,4196.922852
4109.230469,4549.230469,4199.487305,4197.436035,4301.025391,4200,4198.974121,4206.666504,4343.07666,4419.487305,4200.512695,4142.563965,4329.230469,4195.897461
4115.897461,4535.384277,4204.102539,4197.436035,4302.563965,4201.025391,4199.487305,4206.153809,4338.461426,4421.025391,4200.512695,4143.589844,4325.641113,4197.94873
4106.153809,4502.05127,4198.974121,4194.358887,4295.384277,4198.461426,4198.461426,4203.589844,4325.641113,4396.922852,4196.410156,4141.025391,4316.410156,4200
4100.512695,4477.94873,4200.512695,4194.871582,4291.794922,4201.025391,4200.512695,4205.12793,4319.487305,4372.307617,4198.461426,4140.512695,4309.743652,4196.410156
4101.025391,4461.025391,4202.05127,4193.846191,4290.769043,4203.589844,4200,4207.179199,4316.410156,4374.358887,4200,4145.12793,4307.179199,4194.871582
4107.692383,4449.230469,4202.05127,4192.307617,4290.769043,4202.563965,4198.974121,4206.666504,4318.974121,4387.692383,4198.461426,4147.692383,4307.692383,4198.461426
4114.871582,4454.358887,4203.07666,4192.307617,4290.769043,4199.487305,4197.94873,4206.666504,4321.538574,4393.846191,4197.436035,4142.05127,4307.692383,4196.922852
4106.666504,4443.07666,4205.12793,4194.358887,4288.205078,4198.974121,4196.922852,4207.692383,4316.410156,4387.692383,4198.974121,4142.563965,4306.153809,4195.384277
4091.281982,4420.512695,4207.179199,4195.897461,4285.12793,4200,4200,4203.07666,4312.307617,4375.897461,4198.461426,4146.153809,4298.974121,4198.461426
4101.538574,4417.94873,4204.615234,4191.794922,4282.05127,4200.512695,4201.025391,4201.538574,4312.820313,4366.666504,4200,4147.692383,4291.794922,4199.487305
4113.333008,4415.897461,4204.102539,4192.307617,4280,4203.07666,4200.512695,4203.589844,4308.717773,4365.641113,4200.512695,4148.717773,4289.230469,4195.384277
4071.794678,4398.461426,4200,4192.307617,4282.563965,4202.563965,4197.436035,4200.512695,4306.153809,4367.692383,4197.436035,4146.666504,4292.307617,4195.384277
4139.487305,4358.974121,4206.666504,4195.384277,4275.384277,4203.07666,4201.025391,4202.05127,4294.871582,4347.692383,4195.897461,4147.179199,4278.974121,4200
4391.794922,4342.05127,4205.12793,4193.846191,4265.12793,4203.589844,4197.94873,4210.256348,4291.281738,4351.794922,4200,4153.333008,4269.743652,4204.615234
4552.820313,4336.410156,4204.102539,4195.384277,4265.641113,4205.12793,4197.94873,4206.666504,4291.794922,4361.538574,4200.512695,4153.846191,4272.307617,4203.07666
4522.05127,4351.794922,4198.461426,4194.871582,4270.769043,4196.922852,4196.922852,4198.974121,4290.256348,4355.384277,4195.897461,4147.692383,4276.922852,4196.922852
4486.666504,4333.846191,4204.102539,4198.461426,4264.615234,4196.922852,4199.487305,4202.563965,4281.538574,4332.820313,4191.794922,4147.692383,4267.692383,4194.871582
4504.615234,4300.512695,4202.563965,4195.384277,4256.922852,4201.025391,4194.871582,4205.641113,4280,4322.563965,4193.846191,4149.230469,4258.974121,4195.897461
4486.666504,4271.281738,4202.563965,4197.436035,4250.256348,4204.102539,4195.384277,4202.563965,4270.769043,4313.333008,4193.333008,4148.717773,4250.256348,4196.410156
4474.358887,4278.974121,4198.461426,4197.94873,4251.794922,4200,4196.922852,4201.538574,4268.205078,4319.487305,4193.846191,4149.230469,4254.871582,4195.384277
4460.512695,4263.07666,4203.589844,4198.461426,4249.230469,4201.025391,4200.512695,4201.025391,4263.07666,4318.974121,4193.846191,4147.692383,4256.922852,4197.436035
4444.615234,4244.102539,4201.538574,4196.410156,4241.538574,4201.538574,4195.897461,4200.512695,4250.256348,4292.307617,4194.358887,4147.179199,4248.205078,4198.974121
4448.717773,4253.846191,4199.487305,4197.436035,4242.05127,4200.512695,4193.846191,4202.563965,4249.230469,4272.820313,4196.410156,4155.384277,4243.589844,4198.461426
4456.922852,4276.410156,4198.461426,4196.922852,4249.230469,4200,4198.461426,4202.563965,4261.538574,4295.384277,4197.94873,4154.871582,4248.717773,4195.897461
4446.666504,4246.666504,4203.07666,4198.974121,4247.692383,4203.07666,4200,4202.05127,4258.461426,4308.717773,4194.358887,4148.717773,4245.12793,4197.436035
4432.820313,4199.487305,4205.12793,4200.512695,4242.05127,4202.563965,4196.922852,4202.05127,4248.717773,4286.153809,4192.307617,4148.717773,4238.974121,4197.436035
4435.384277,4205.641113,4199.487305,4199.487305,4245.641113,4198.974121,4196.922852,4202.05127,4252.820313,4277.436035,4195.897461,4150.769043,4241.025391,4196.410156
4438.974121,4227.179199,4200,4202.05127,4246.666504,4201.538574,4199.487305,4200,4253.333008,4290.256348,4195.384277,4150.256348,4238.974121,4196.922852
4435.384277,4217.436035,4202.05127,4202.563965,4245.641113,4202.563965,4197.436035,4197.94873,4248.717773,4289.743652,4194.358887,4156.922852,4238.461426,4197.94873
4434.358887,4195.384277,4205.641113,4201.025391,4249.230469,4203.589844,4197.94873,4203.589844,4250.256348,4279.487305,4194.358887,4158.461426,4235.897461,4196.922852
4436.922852,4210.769043,4200,4195.897461,4254.871582,4203.07666,4195.384277,4208.205078,4260,4299.487305,4195.897461,4153.846191,4235.384277,4197.436035
4431.794922,4217.94873,4201.538574,4200,4252.307617,4204.102539,4197.436035,4204.615234,4252.307617,4300,4196.922852,4151.794922,4232.820313,4197.436035
4428.717773,4215.384277,4200.512695,4201.538574,4251.281738,4202.05127,4198.461426,4199.487305,4248.717773,4282.563965,4198.461426,4154.358887,4233.846191,4197.94873
4425.12793,4191.281738,4203.07666,4203.07666,4250.769043,4204.102539,4202.05127,4202.563965,4253.333008,4282.563965,4196.922852,4155.897461,4227.179199,4198.974121
4426.153809,4198.461426,4196.410156,4199.487305,4250.769043,4201.538574,4195.384277,4204.615234,4259.487305,4293.846191,4193.846191,4158.461426,4230.769043,4198.461426
4425.641113,4219.487305,4202.563965,4203.07666,4253.846191,4203.07666,4194.358887,4204.102539,4257.94873,4275.897461,4192.820313,4160,4240.512695,4197.94873
4436.410156,4238.974121,4205.12793,4202.563965,4264.615234,4203.07666,4195.384277,4205.12793,4267.692383,4286.153809,4195.897461,4158.974121,4243.07666,4198.974121
4446.666504,4226.153809,4205.641113,4202.05127,4266.666504,4203.07666,4198.974121,4204.615234,4269.230469,4316.410156,4198.974121,4159.487305,4232.307617,4198.461426
4450.256348,4229.743652,4197.94873,4199.487305,4266.153809,4201.538574,4195.897461,4201.538574,4264.102539,4325.641113,4196.922852,4160,4235.384277,4196.410156
4446.153809,4228.717773,4201.025391,4201.538574,4270.256348,4203.589844,4197.436035,4201.025391,4266.153809,4309.230469,4196.410156,4161.025391,4245.12793,4197.436035
4444.102539,4226.666504,4201.538574,4200,4270.256348,4201.538574,4198.461426,4203.07666,4270.769043,4302.05127,4200,4160.512695,4237.436035,4196.922852
4438.461426,4232.820313,4203.589844,4200,4262.563965,4200.512695,4198.461426,4204.615234,4264.615234,4302.05127,4197.94873,4161.025391,4226.153809,4195.384277
4428.205078,4240,4203.589844,4201.538574,4263.07666,4202.563965,4196.922852,4202.05127,4261.538574,4288.717773,4192.307617,4161.538574,4232.307617,4194.871582
4422.05127,4225.641113,4201.025391,4201.538574,4267.692383,4204.615234,4197.94873,4197.94873,4261.538574,4266.153809,4195.897461,4161.538574,4237.94873,4197.94873
4423.07666,4207.179199,4200.512695,4198.974121,4265.12793,4205.641113,4198.974121,4197.94873,4257.94873,4267.179199,4200.512695,4160.512695,4232.307617,4197.436035
4419.487305,4199.487305,4201.538574,4199.487305,4258.461426,4204.615234,4195.384277,4203.589844,4255.897461,4293.333008,4196.410156,4160.512695,4227.179199,4194.871582
4406.153809,4191.794922,4203.07666,4203.07666,4256.410156,4202.563965,4195.384277,4205.641113,4251.281738,4295.384277,4192.820313,4160.512695,4222.563965,4195.897461
4393.846191,4194.871582,4196.410156,4200.512695,4258.461426,4201.025391,4196.410156,4201.538574,4250.256348,4283.589844,4196.922852,4160,4224.615234,4197.94873
4385.641113,4184.102539,4197.94873,4201.538574,4251.794922,4203.589844,4197.94873,4200.512695,4251.794922,4271.281738,4198.461426,4161.538574,4222.05127,4196.922852
4384.102539,4171.794922,4198.461426,4202.563965,4246.666504,4203.07666,4191.281738,4203.07666,4254.358887,4266.666504,4195.897461,4166.666504,4215.384277,4195.897461
4382.05127,4166.666504,4202.563965,4202.563965,4253.846191,4205.12793,4194.871582,4203.07666,4245.641113,4269.230469,4194.871582,4166.666504,4212.307617,4195.897461
4377.435547,4188.205078,4198.461426,4197.94873,4258.974121,4204.102539,4198.461426,4202.563965,4245.12793,4276.922852,4195.897461,4162.05127,4221.025391,4196.410156
4361.538574,4182.563965,4203.07666,4201.025391,4248.205078,4206.153809,4200,4202.563965,4245.641113,4261.538574,4191.794922,4163.589844,4216.922852,4195.897461
4359.487305,4171.281738,4200,4198.974121,4245.12793,4205.641113,4195.897461,4201.538574,4247.692383,4264.102539,4191.281738,4166.666504,4209.230469,4197.436035
4370.256348,4158.461426,4202.563965,4201.025391,4249.743652,4205.12793,4198.974121,4201.025391,4244.615234,4276.410156,4195.384277,4163.589844,4210.769043,4198.461426
4375.897461,4177.436035,4202.563965,4201.538574,4247.692383,4200,4196.410156,4202.05127,4246.666504,4273.846191,4196.410156,4161.025391,4221.025391,4198.461426
4362.563965,4188.717773,4203.589844,4199.487305,4241.025391,4201.538574,4196.410156,4201.538574,4245.12793,4247.179199,4194.871582,4164.102539,4221.025391,4198.974121
4361.025391,4186.666504,4198.461426,4196.922852,4246.666504,4203.07666,4196.410156,4201.025391,4249.743652,4246.666504,4196.922852,4165.12793,4215.384277,4198.974121
4369.230469,4160,4203.07666,4203.07666,4250.769043,4203.589844,4198.461426,4202.563965,4248.717773,4263.07666,4197.436035,4166.153809,4212.820313,4197.94873
4372.307617,4147.179199,4203.07666,4203.589844,4242.563965,4201.025391,4196.922852,4201.538574,4238.974121,4261.025391,4193.846191,4163.589844,4211.794922,4197.94873
4364.102539,4143.589844,4201.538574,4200,4236.410156,4202.563965,4195.384277,4200.512695,4237.436035,4250.769043,4193.333008,4165.641113,4204.615234,4200.512695
4359.487305,4147.692383,4202.563965,4200,4241.025391,4204.102539,4195.897461,4202.05127,4246.666504,4252.820313,4195.384277,4171.794922,4205.641113,4199.487305
4358.461426,4144.102539,4203.589844,4201.025391,4241.025391,4202.563965,4199.487305,4204.102539,4246.666504,4253.333008,4196.410156,4170.769043,4214.358887,4198.461426
4356.922852,4138.461426,4204.615234,4199.487305,4237.436035,4202.05127,4200,4202.563965,4238.461426,4253.333008,4195.384277,4163.07666,4207.692383,4198.461426
4348.205078,4145.12793,4202.05127,4197.94873,4238.974121,4202.563965,4197.94873,4202.05127,4233.333008,4256.410156,4194.358887,4164.615234,4196.922852,4198.974121
4328.205078,4115.897461,4202.05127,4201.025391,4230.256348,4202.05127,4197.436035,4200,4222.05127,4238.461426,4191.281738,4164.102539,4196.410156,4197.436035
4312.820313,4072.820313,4199.487305,4200.512695,4216.410156,4198.974121,4193.333008,4199.487305,4216.922852,4224.102539,4189.230469,4161.538574,4200.512695,4195.384277
4307.179199,4067.692139,4204.615234,4198.974121,4213.846191,4201.538574,4196.922852,4203.07666,4216.922852,4218.974121,4191.794922,4165.12793,4193.333008,4195.897461
4305.12793,4094.871582,4201.025391,4195.384277,4217.94873,4203.07666,4197.436035,4201.025391,4216.922852,4218.974121,4196.922852,4167.692383,4189.230469,4197.94873
4299.487305,4086.666504,4202.05127,4201.025391,4214.358887,4204.615234,4194.358887,4200.512695,4213.333008,4219.487305,4194.871582,4163.589844,4188.205078,4198.461426
4293.333008,4087.692139,4200,4199.487305,4212.820313,4200.512695,4191.281738,4206.153809,4213.846191,4226.153809,4191.281738,4164.102539,4192.820313,4200
4281.538574,4081.53833,4203.589844,4197.436035,4210.769043,4201.538574,4200.512695,4207.179199,4204.615234,4210.256348,4190.256348,4167.179199,4188.717773,4201.538574
4281.538574,4075.384521,4198.461426,4196.410156,4209.230469,4200.512695,4196.410156,4201.025391,4206.153809,4208.205078,4188.717773,4165.12793,4183.07666,4197.94873
4281.538574,4051.281982,4200,4200,4207.692383,4200.512695,4191.794922,4200,4205.641113,4210.769043,4188.205078,4164.615234,4173.846191,4192.820313
4277.436035,4050.769043,4197.436035,4195.384277,4207.692383,4198.974121,4193.846191,4201.538574,4198.974121,4206.153809,4193.333008,4168.717773,4175.897461,4195.384277
4278.974121,4049.743408,4200.512695,4196.922852,4204.102539,4199.487305,4197.94873,4201.025391,4197.94873,4201.538574,4194.358887,4167.692383,4182.563965,4200
4288.717773,4060.512695,4197.94873,4198.974121,4210.769043,4198.461426,4195.384277,4201.538574,4210.256348,4206.666504,4192.307617,4163.589844,4187.179199,4197.436035
4283.589844,4066.666504,4200.512695,4198.974121,4214.871582,4202.05127,4197.94873,4201.025391,4207.692383,4207.692383,4192.820313,4164.615234,4177.94873,4193.846191
4282.563965,4078.461426,4201.025391,4195.384277,4208.717773,4206.153809,4197.436035,4198.974121,4202.563965,4213.333008,4195.384277,4165.641113,4176.922852,4193.846191
4287.692383,4081.025635,4203.589844,4196.922852,4206.666504,4205.12793,4195.384277,4201.025391,4206.666504,4210.769043,4194.871582,4165.12793,4187.179199,4197.436035
4286.153809,4069.230713,4205.12793,4198.461426,4212.307617,4201.025391,4194.871582,4203.589844,4207.692383,4210.256348,4192.820313,4165.641113,4186.666504,4197.94873
4282.05127,4059.487061,4203.07666,4197.436035,4211.281738,4199.487305,4194.871582,4202.05127,4211.281738,4223.589844,4193.333008,4165.12793,4178.461426,4196.410156
4280,4061.53833,4200,4196.922852,4204.102539,4200,4197.436035,4200,4216.922852,4226.153809,4194.871582,4164.615234,4175.384277,4195.897461
4273.333008,4072.307617,4196.922852,4197.436035,4204.102539,4198.974121,4196.410156,4201.025391,4214.358887,4205.641113,4195.897461,4164.615234,4181.025391,4196.922852
4265.641113,4061.025635,4203.07666,4199.487305,4203.589844,4201.025391,4195.384277,4202.05127,4205.641113,4189.230469,4191.794922,4164.102539,4182.05127,4197.94873
4270.769043,4061.53833,4200.512695,4197.94873,4208.717773,4201.025391,4195.384277,4201.538574,4206.666504,4207.179199,4192.307617,4166.153809,4183.07666,4197.94873
4277.436035,4077.94873,4202.563965,4201.538574,4215.384277,4203.07666,4199.487305,4200.512695,4205.12793,4217.436035,4195.384277,4165.641113,4181.538574,4197.94873
4280.512695,4086.666504,4204.615234,4198.461426,4215.384277,4202.563965,4195.897461,4198.974121,4208.205078,4214.871582,4195.384277,4165.12793,4182.563965,4196.922852
4273.846191,4065.128174,4207.692383,4196.410156,4207.692383,4202.05127,4198.461426,4200,4203.589844,4205.641113,4191.281738,4166.153809,4180,4195.384277
4276.922852,4085.128174,4196.922852,4195.897461,4210.256348,4199.487305,4197.436035,4202.05127,4201.538574,4208.205078,4192.820313,4163.589844,4182.563965,4195.384277
4281.025391,4106.153809,4200,4200.512695,4211.281738,4203.07666,4196.922852,4202.563965,4204.102539,4203.589844,4195.384277,4164.615234,4187.692383,4196.922852
4288.717773,4121.025391,4202.563965,4197.94873,4207.179199,4200.512695,4196.410156,4202.563965,4212.307617,4215.384277,4195.897461,4169.230469,4196.922852,4197.94873
4298.974121,4126.153809,4203.589844,4197.436035,4207.179199,4200.512695,4201.025391,4202.05127,4208.205078,4220,4197.436035,4168.205078,4196.922852,4197.94873
4302.05127,4145.641113,4197.94873,4196.410156,4213.846191,4200.512695,4196.922852,4201.538574,4209.230469,4211.794922,4198.461426,4166.153809,4194.871582,4196.922852
4291.281738,4143.589844,4201.025391,4197.436035,4213.333008,4198.974121,4195.897461,4202.563965,4205.12793,4208.205078,4195.384277,4168.205078,4196.410156,4194.358887
4293.333008,4144.102539,4202.05127,4194.871582,4208.717773,4196.922852,4196.922852,4201.538574,4196.922852,4212.820313,4192.307617,4166.666504,4205.641113,4195.384277
4296.922852,4136.410156,4205.641113,4198.461426,4206.153809,4202.05127,4198.461426,4200,4195.897461,4202.05127,4192.307617,4164.102539,4206.153809,4198.974121
4302.563965,4139.487305,4204.102539,4201.538574,4207.179199,4201.538574,4197.436035,4201.538574,4204.102539,4192.820313,4192.307617,4165.641113,4201.538574,4197.94873
4311.794922,4153.333008,4201.538574,4198.974121,4205.641113,4196.922852,4197.436035,4198.461426,4200.512695,4192.820313,4194.871582,4167.692383,4208.205078,4194.871582
4313.333008,4144.615234,4201.025391,4196.922852,4202.563965,4197.94873,4196.410156,4194.871582,4189.230469,4187.179199,4197.94873,4167.179199,4216.922852,4195.384277
4307.692383,4134.871582,4200,4198.461426,4207.179199,4200,4194.358887,4200,4190.256348,4200,4197.94873,4166.153809,4220.512695,4198.974121
4316.922852,4152.307617,4201.025391,4199.487305,4216.922852,4202.05127,4195.897461,4204.102539,4198.461426,4214.358887,4194.871582,4165.12793,4228.205078,4198.974121
4329.230469,4174.358887,4201.025391,4196.922852,4220,4203.07666,4194.358887,4201.025391,4209.743652,4213.333008,4196.410156,4166.666504,4241.025391,4197.436035
4323.07666,4165.641113,4204.615234,4199.487305,4215.384277,4205.641113,4195.384277,4201.538574,4213.333008,4213.846191,4198.974121,4166.153809,4243.589844,4196.922852
4321.025391,4178.974121,4198.974121,4197.436035,4215.897461,4200.512695,4194.871582,4203.589844,4212.307617,4226.153809,4197.436035,4165.12793,4252.307617,4198.974121
4322.563965,4184.102539,4201.538574,4197.436035,4217.94873,4199.487305,4195.384277,4202.05127,4207.179199,4223.589844,4193.846191,4167.179199,4262.563965,4196.410156
4315.897461,4170.256348,4201.025391,4197.436035,4213.333008,4202.05127,4191.794922,4201.025391,4209.230469,4211.281738,4193.333008,4170.256348,4261.538574,4196.410156
4307.179199,4160,4204.615234,4200,4207.179199,4204.615234,4196.922852,4202.05127,4202.05127,4193.333008,4192.820313,4167.692383,4252.307617,4197.94873
4316.922852,4190.256348,4200.512695,4196.410156,4212.307617,4198.974121,4195.897461,4202.05127,4208.205078,4214.358887,4194.358887,4165.12793,4260,4197.436035
4310.256348,4172.307617,4204.102539,4198.974121,4213.333008,4199.487305,4194.358887,4202.05127,4217.436035,4237.436035,4193.333008,4168.717773,4257.94873,4196.922852
4297.436035,4135.384277,4202.05127,4197.436035,4208.205078,4198.974121,4192.820313,4200,4207.692383,4220.512695,4192.820313,4170.256348,4249.230469,4196.410156
4299.487305,4126.153809,4203.07666,4200.512695,4207.179199,4199.487305,4199.487305,4200,4195.384277,4196.922852,4196.410156,4167.692383,4250.256348,4195.384277
4291.281738,4131.281738,4198.974121,4200,4202.563965,4200,4195.897461,4201.025391,4202.05127,4201.025391,4195.384277,4169.743652,4253.846191,4193.846191
4255.897461,4096.410156,4199.487305,4198.974121,4188.717773,4200,4194.871582,4202.563965,4190.256348,4188.717773,4188.717773,4173.333008,4236.922852,4194.358887
