 sampling:128, subject:ethan                                                                           , labels:COUNTER INTERPOLATED AF3 F7 F3 FC5 T7 P7 O1 O2 P8 T8 FC6 F4 F8 AF4 RAW_CQ GYROX GYROY MARKER MARKER_HARDWARE SYNC TIME_STAMP_s TIME_STAMP_ms CQ_AF3 CQ_F7 CQ_F3 CQ_FC5 CQ_T7 CQ_P7 CQ_O1 CQ_O2 CQ_P8 CQ_T8 CQ_FC6 CQ_F4 CQ_F8 CQ_AF4 CQ_CMS CQ_DRL, chan:40, units:emotiv,,,,,,,,,
3119.487061,2546.153809,2787.179443,4041.025635,2854.358887,4028.205078,4201.025391,4205.641113,3245.640869,2857.94873,3839.487061,2855.897461,2514.871826,3774.358887
3119.487061,2583.5896,2799.487061,4046.666504,2867.179443,4027.692139,4198.461426,4203.07666,3269.743408,2883.5896,3838.974365,2873.333252,2544.615234,3778.974365
3094.871826,2590.256348,2791.794922,4041.53833,2880,4028.205078,4202.563965,4203.07666,3266.153809,2886.666504,3832.820313,2872.307617,2541.53833,3773.845947
3065.128174,2571.281982,2764.615234,4025.640869,2861.025635,4023.076904,4206.666504,4202.05127,3234.358887,2865.640869,3823.5896,2855.384521,2523.076904,3765.128174
3065.640869,2583.5896,2756.410156,4018.461426,2850.769043,4017.435791,4205.12793,4201.025391,3222.05127,2861.53833,3821.025635,2844.615234,2533.333252,3769.230713
3097.435791,2628.205078,2785.128174,4028.205078,2880,4020,4203.589844,4201.025391,3258.461426,2902.05127,3835.384521,2877.435791,2580,3783.5896
3138.461426,2681.025635,2828.717773,4043.5896,2927.692139,4027.179443,4203.07666,4200,3308.205078,2961.53833,3857.435791,2942.05127,2640.512695,3802.05127
3123.5896,2690.769043,2816.410156,4037.435791,2937.435791,4025.128174,4202.563965,4200,3296.923096,2966.666504,3849.230713,2941.53833,2645.640869,3794.871582
3080.512695,2669.743408,2773.846191,4018.974365,2920,4018.974365,4203.07666,4201.538574,3267.179443,2944.615234,3832.820313,2905.128174,2619.487061,3783.5896
3075.384521,2668.717773,2769.743408,4012.307617,2914.871826,4018.974365,4206.153809,4201.538574,3274.358887,2952.820557,3842.05127,2913.846191,2629.743408,3791.281982
3077.94873,2683.076904,2772.820557,4010.769043,2916.410156,4017.435791,4207.179199,4198.461426,3276.410156,2964.615234,3844.102539,2926.666504,2646.153809,3789.230713
3037.435791,2670.769287,2737.94873,3997.435791,2883.076904,4009.743408,4201.025391,4201.025391,3255.384521,2938.461426,3818.974365,2900.512695,2624.102539,3768.717773
3008.717773,2663.076904,2719.487061,3984.615234,2858.461426,4008.205078,4195.897461,4203.589844,3249.230713,2922.05127,3812.820313,2889.230713,2617.94873,3767.179443
3008.717773,2677.435791,2724.615234,3980,2876.410156,4010.256348,4201.538574,4195.384277,3251.281982,2934.871826,3820.512695,2896.410156,2633.846191,3775.384521
3017.94873,2704.615234,2733.333252,3981.025635,2913.846191,4011.794678,4206.153809,4192.820313,3265.128174,2973.846191,3829.743408,2917.94873,2659.487061,3789.230713
3005.128174,2713.333252,2728.205078,3974.358887,2911.794922,4009.230713,4203.589844,4195.384277,3269.230713,2992.307617,3831.281982,2924.615234,2676.923096,3786.666504
2991.794678,2717.94873,2723.076904,3967.179443,2896.923096,4006.153809,4203.07666,4194.358887,3267.179443,2983.076904,3831.794678,2923.5896,2686.153809,3775.384521
2993.846191,2738.461426,2730.256348,3968.717773,2909.230713,4005.640869,4204.615234,4191.794922,3271.794678,2982.05127,3835.897461,2944.615234,2697.94873,3781.025635
3019.487061,2784.615234,2762.05127,3981.53833,2951.281982,4009.230713,4203.589844,4195.384277,3287.692139,3011.794678,3851.794678,2981.025635,2733.333252,3806.153809
3026.666504,2811.794922,2773.846191,3982.563965,2969.743408,4010.769043,4204.102539,4194.871582,3287.692139,3027.179443,3858.461426,2985.640869,2758.974365,3805.128174
2984.102539,2786.153809,2736.410156,3963.076904,2936.410156,4002.05127,4206.666504,4193.846191,3269.230713,3000.512695,3846.153809,2958.974365,2741.53833,3784.102539
2965.640869,2784.615234,2721.53833,3956.410156,2923.076904,4000,4202.05127,4195.384277,3274.358887,2998.461426,3844.615234,2962.05127,2743.076904,3785.640869
2971.281982,2806.666504,2724.615234,3958.461426,2928.205078,4004.102539,4200,4194.871582,3287.179443,3009.743408,3843.076904,2968.205078,2759.487061,3786.153809
2942.563965,2796.410156,2698.461426,3943.076904,2904.102539,3999.487061,4202.563965,4193.846191,3270.256348,2988.717773,3831.794678,2946.153809,2746.153809,3768.717773
2880,2745.640869,2645.128174,3915.897461,2856.410156,3989.743408,4202.563965,4193.333008,3214.358887,2937.435791,3809.743408,2901.53833,2700,3749.743408
2886.153809,2757.435791,2649.230713,3916.410156,2871.281982,3991.794678,4202.05127,4194.358887,3219.487061,2953.846191,3808.717773,2911.794922,2714.358887,3765.640869
2922.563965,2811.794922,2684.102539,3927.179443,2901.53833,3994.871582,4203.589844,4200.512695,3269.743408,3007.692139,3825.128174,2957.435791,2767.692139,3783.5896
2924.615234,2843.076904,2700,3927.179443,2908.717773,3992.820313,4198.974121,4199.487305,3283.076904,3029.743408,3835.384521,2975.384521,2794.871826,3782.563965
2916.923096,2861.53833,2702.563965,3926.666504,2921.025635,3995.897217,4193.333008,4191.794922,3274.871826,3035.384521,3835.897461,2976.410156,2801.53833,3780.512695
2941.025635,2906.666504,2722.563965,3937.94873,2968.205078,4000.512695,4197.436035,4188.205078,3307.179443,3073.333252,3851.281982,3011.794678,2837.94873,3801.025635
2965.128174,2946.666504,2747.179443,3945.128174,3020,4001.025635,4204.102539,4189.743652,3342.563965,3113.333252,3871.794678,3050.769043,2883.076904,3815.897461
2966.153809,2956.410156,2751.794922,3940.512695,3042.05127,3999.487061,4204.102539,4190.256348,3336.923096,3116.923096,3868.717773,3055.384521,2900,3810.256348
2976.410156,2973.333252,2758.461426,3941.53833,3038.974365,3997.94873,4200,4191.794922,3336.410156,3120.512695,3860,3067.179443,2916.410156,3811.794678
3013.846191,3026.666504,2797.94873,3957.94873,3054.358887,4003.5896,4195.897461,4192.307617,3372.820313,3164.102539,3874.871582,3118.461426,2966.153809,3833.333252
3023.076904,3057.94873,2822.563965,3964.102539,3084.102539,4009.230713,4197.436035,4190.769043,3402.563965,3204.615234,3882.563965,3149.743408,2995.384521,3837.435791
3006.153809,3056.410156,2814.871826,3953.845947,3093.846191,4006.153809,4202.563965,4189.743652,3400.512695,3211.794678,3878.974365,3150.769043,2998.461426,3835.897461
3037.435791,3094.358887,2841.53833,3956.923096,3120.512695,4008.205078,4203.07666,4189.743652,3415.897461,3247.692139,3895.384521,3188.717773,3043.5896,3858.461426
3076.923096,3147.692139,2885.128174,3969.743408,3157.435791,4017.435791,4198.461426,4191.281738,3456.923096,3304.615234,3915.384521,3235.384521,3097.435791,3868.205078
3085.640869,3176.923096,2904.102539,3976.923096,3169.743408,4021.025635,4193.333008,4191.794922,3482.05127,3330.256348,3921.53833,3257.435791,3122.05127,3862.05127
3096.410156,3206.666504,2914.871826,3981.53833,3191.281982,4023.076904,4194.871582,4188.717773,3492.307617,3343.5896,3930.256348,3274.358887,3147.692139,3871.281982
3095.384521,3231.281982,2920,3980,3226.666504,4027.692139,4200,4185.641113,3502.05127,3367.692139,3933.333252,3287.179443,3172.820557,3877.435791
3065.640869,3223.5896,2907.179443,3971.281982,3223.5896,4026.153809,4202.563965,4188.205078,3497.435791,3366.666504,3918.461426,3282.05127,3170.256348,3869.743408
3086.666504,3253.333252,2930.769043,3977.94873,3237.94873,4027.692139,4200.512695,4191.281738,3510.769043,3384.615234,3923.076904,3309.743408,3200.512695,3885.640869
3141.53833,3320,2980,3995.897217,3301.53833,4034.871582,4197.436035,4190.256348,3554.358887,3441.025635,3950.769043,3362.563965,3260,3906.153809
3167.692139,3368.717773,3018.461426,4005.128174,3347.179443,4040,4198.461426,4189.230469,3599.487061,3492.820313,3980,3406.666504,3309.230713,3913.333252
3161.53833,3376.410156,3022.563965,4000.512695,3336.923096,4042.563965,4204.615234,4190.256348,3590.769043,3495.384521,3981.025635,3414.358887,3322.05127,3913.333252
3151.794678,3371.281982,3004.102539,3992.820313,3328.717773,4041.53833,4207.179199,4190.769043,3565.128174,3484.615234,3964.615234,3404.102539,3314.358887,3912.307617
3137.435791,3369.230713,2993.333252,3985.640869,3326.153809,4036.923096,4202.05127,4192.307617,3565.128174,3477.94873,3956.410156,3400.512695,3311.281982,3906.153809
3147.692139,3392.820313,3013.846191,3986.666504,3336.923096,4039.487061,4197.94873,4190.769043,3588.717773,3488.717773,3963.5896,3421.025635,3341.025635,3912.307617
3137.94873,3395.384521,3004.615234,3982.05127,3335.897461,4042.563965,4199.487305,4189.743652,3591.281982,3489.743408,3948.717773,3417.435791,3344.615234,3905.128174
3119.487061,3391.281982,2988.205078,3978.461426,3331.794678,4042.05127,4198.974121,4190.769043,3592.820313,3489.743408,3937.94873,3414.871826,3336.410156,3905.128174
3164.615234,3446.153809,3032.307617,3995.384521,3381.025635,4044.615234,4196.922852,4190.769043,3632.307617,3536.923096,3970.256348,3463.5896,3391.794678,3934.871582
3228.205078,3521.53833,3087.179443,4013.333252,3449.230713,4048.205078,4197.436035,4190.769043,3677.435791,3607.179443,4003.5896,3520,3464.102539,3956.410156
3222.563965,3535.384521,3091.281982,4006.153809,3449.230713,4048.205078,4196.922852,4192.307617,3687.179443,3627.692139,4001.025635,3530.256348,3478.461426,3946.666504
3196.410156,3532.307617,3085.640869,3997.435791,3430.769043,4049.230713,4194.358887,4189.743652,3679.487061,3613.845947,3993.845947,3525.640869,3482.05127,3941.53833
3214.358887,3569.230713,3104.615234,4006.666504,3463.076904,4054.358887,4194.358887,4188.205078,3694.358887,3637.435791,4001.53833,3546.153809,3515.897461,3950.256348
3246.153809,3614.871826,3131.794678,4017.94873,3509.230713,4061.025635,4198.974121,4186.666504,3731.281982,3687.179443,4015.384521,3577.94873,3550.769043,3965.128174
3256.410156,3631.281982,3144.102539,4015.897217,3523.5896,4063.076904,4202.05127,4185.12793,3746.153809,3703.076904,4021.53833,3590.256348,3568.717773,3970.769043
3233.846191,3617.435791,3127.179443,4004.615234,3509.743408,4059.487061,4203.07666,4184.615234,3727.179443,3674.358887,4007.692139,3578.461426,3557.94873,3953.333252
3262.563965,3658.974365,3158.974365,4021.53833,3542.05127,4067.692139,4200,4186.666504,3756.410156,3702.05127,4017.435791,3620.512695,3595.897461,3968.717773
3325.128174,3729.230713,3219.487061,4045.128174,3607.692139,4076.410156,4198.461426,4186.153809,3806.666504,3764.615234,4041.025635,3681.53833,3663.5896,4001.53833
3342.563965,3757.94873,3238.461426,4043.5896,3632.307617,4075.897217,4199.487305,4183.589844,3820.512695,3792.307617,4045.128174,3703.076904,3689.743408,4000
3346.153809,3773.845947,3248.717773,4043.5896,3629.743408,4078.974365,4200,4186.666504,3835.384521,3812.307617,4055.897217,3722.05127,3708.717773,4003.076904
3405.640869,3842.05127,3310.769043,4067.179443,3693.333252,4089.230713,4200,4191.281738,3891.794678,3881.53833,4093.845947,3785.128174,3781.025635,4040.512695
3421.53833,3868.205078,3332.307617,4067.179443,3726.153809,4087.692139,4198.974121,4190.769043,3910.256348,3910.769043,4095.384521,3807.692139,3808.205078,4033.333252
3381.53833,3848.205078,3311.281982,4054.871582,3693.845947,4083.5896,4194.358887,4189.743652,3892.820313,3889.230713,4076.410156,3791.281982,3790.769043,4007.692139
3366.666504,3855.897461,3310.256348,4054.358887,3685.640869,4088.205078,4194.358887,4191.281738,3890.769043,3880,4075.384521,3785.640869,3793.333252,4015.384521
3397.435791,3900,3337.435791,4060.512695,3735.384521,4094.358887,4200.512695,4186.153809,3915.897461,3915.384521,4086.666504,3809.743408,3824.615234,4041.025635
3437.435791,3943.076904,3371.281982,4073.333252,3782.05127,4098.974121,4201.538574,4183.589844,3942.563965,3965.128174,4102.563965,3851.281982,3869.230713,4054.871582
3449.230713,3961.53833,3383.076904,4079.487061,3788.717773,4103.07666,4194.871582,4189.230469,3952.820313,3981.025635,4105.641113,3870.769043,3896.923096,4050.769043
3417.435791,3948.205078,3361.53833,4064.102539,3769.230713,4100.512695,4195.897461,4191.281738,3949.230713,3962.563965,4086.153809,3852.307617,3881.025635,4033.333252
3411.794678,3956.410156,3361.53833,4061.025635,3780.512695,4097.94873,4200.512695,4187.179199,3952.820313,3968.717773,4085.640869,3851.794678,3885.128174,4041.025635
3431.794678,3983.5896,3376.923096,4074.358887,3811.794678,4100,4201.025391,4186.153809,3967.179443,3989.743408,4100,3866.666504,3915.384521,4058.461426
3432.307617,3995.897217,3384.102539,4075.897217,3821.53833,4102.05127,4198.974121,4187.692383,3992.820313,4003.5896,4102.563965,3874.358887,3930.769043,4066.666504
3467.692139,4042.563965,3435.384521,4084.615234,3861.025635,4107.179199,4198.974121,4188.205078,4038.461426,4053.333252,4124.615234,3923.076904,3981.53833,4087.692139
3496.410156,4072.307617,3459.487061,4090.769043,3879.487061,4111.281738,4199.487305,4189.230469,4045.640869,4073.845947,4136.922852,3950.256348,4013.845947,4089.230713
3451.794678,4032.820313,3404.102539,4074.871582,3828.717773,4108.205078,4196.410156,4191.281738,4014.358887,4028.205078,4105.641113,3915.897461,3972.820313,4060.512695
3416.923096,4016.923096,3381.53833,4069.743408,3814.358887,4109.230469,4197.436035,4189.230469,4003.5896,4004.615234,4091.794678,3904.102539,3953.845947,4061.025635
3453.333252,4068.205078,3426.153809,4086.666504,3865.128174,4114.358887,4202.05127,4185.12793,4018.974365,4039.487061,4117.94873,3941.53833,4000,4090.769043
3448.205078,4067.179443,3417.435791,4080,3853.845947,4106.153809,4202.563965,4186.153809,4008.717773,4033.333252,4114.871582,3934.871582,4001.025635,4081.53833
3423.5896,4056.410156,3404.615234,4070.769043,3836.410156,4100.512695,4197.436035,4189.230469,4009.743408,4026.153809,4100,3927.692139,3996.923096,4073.333252
3413.333252,4067.179443,3415.384521,4071.281982,3847.692139,4104.102539,4195.897461,4187.692383,4008.205078,4032.820313,4093.333252,3930.256348,4007.692139,4076.923096
3407.179443,4075.897217,3417.94873,4067.692139,3849.743408,4106.666504,4196.410156,4183.589844,4008.717773,4030.256348,4090.256348,3935.384521,4010.769043,4082.05127
3403.076904,4082.05127,3417.435791,4064.615234,3852.307617,4109.230469,4196.922852,4185.641113,4030.769043,4025.640869,4094.871582,3947.179443,4015.897217,4091.281982
3416.923096,4105.12793,3434.871826,4071.794678,3888.205078,4115.384277,4200,4189.743652,4052.307617,4048.205078,4103.07666,3960,4041.025635,4107.692383
3411.794678,4102.563965,3435.384521,4066.153809,3887.692139,4114.871582,4201.538574,4190.256348,4042.05127,4063.5896,4088.717773,3956.923096,4045.640869,4101.025391
3406.153809,4106.666504,3442.563965,4058.974365,3868.205078,4111.281738,4196.922852,4190.256348,4046.153809,4067.692139,4086.153809,3973.845947,4057.435791,4101.538574
3399.487061,4121.538574,3443.5896,4061.53833,3866.666504,4111.794922,4195.384277,4191.794922,4043.5896,4056.923096,4093.845947,3974.871582,4067.179443,4105.12793
3385.640869,4124.102539,3430.256348,4064.102539,3878.461426,4114.358887,4198.974121,4187.692383,4032.820313,4054.871582,4093.845947,3958.974365,4063.076904,4103.07666
3374.871826,4122.563965,3434.358887,4062.563965,3874.871582,4112.307617,4200.512695,4183.589844,4043.076904,4075.384521,4094.871582,3969.743408,4069.743408,4105.641113
3378.974365,4133.846191,3446.153809,4065.128174,3872.307617,4113.333008,4200,4185.12793,4039.487061,4089.743408,4095.897217,3986.666504,4088.717773,4111.281738
3398.461426,4145.641113,3449.230713,4071.794678,3883.076904,4118.461426,4199.487305,4186.666504,4036.410156,4094.871582,4094.871582,3992.820313,4098.461426,4106.153809
3398.461426,4137.94873,3443.5896,4068.205078,3869.743408,4117.436035,4197.436035,4186.153809,4053.333252,4082.05127,4090.769043,3989.743408,4089.743408,4102.563965
3381.53833,4134.871582,3441.53833,4057.435791,3860.512695,4113.333008,4193.846191,4185.641113,4055.897217,4065.128174,4088.205078,3981.53833,4083.5896,4107.179199
3364.102539,4128.717773,3427.179443,4046.153809,3864.102539,4113.846191,4197.436035,4185.641113,4030.256348,4050.256348,4081.025635,3966.153809,4073.845947,4104.102539
3360.512695,4121.025391,3417.435791,4042.563965,3865.128174,4113.846191,4202.563965,4190.769043,4028.717773,4051.281982,4078.974365,3965.640869,4074.358887,4103.07666
3363.076904,4128.717773,3425.640869,4042.563965,3864.102539,4112.820313,4202.563965,4191.794922,4043.5896,4066.666504,4083.076904,3972.307617,4085.128174,4107.692383
3376.410156,4154.871582,3443.5896,4046.666504,3868.205078,4118.461426,4197.94873,4184.615234,4051.281982,4093.845947,4088.717773,3986.153809,4106.666504,4115.384277
3354.358887,4133.846191,3422.05127,4037.435791,3836.410156,4116.922852,4196.922852,4185.12793,4030.769043,4065.640869,4075.384521,3966.153809,4088.717773,4103.589844
3337.435791,4116.922852,3408.717773,4026.153809,3834.871582,4113.333008,4198.974121,4191.281738,4020,4040,4069.743408,3949.230713,4074.358887,4100
3342.05127,4124.102539,3416.923096,4021.53833,3854.871582,4112.820313,4200,4189.743652,4022.05127,4057.94873,4073.845947,3957.94873,4085.128174,4104.102539
3322.563965,4101.538574,3400.512695,4012.307617,3816.923096,4106.153809,4200.512695,4184.615234,4007.179443,4044.102539,4055.897217,3944.615234,4076.410156,4093.333252
3272.820313,4052.307617,3358.974365,3992.820313,3757.94873,4101.538574,4200,4185.12793,3972.307617,3986.666504,4024.615234,3903.076904,4033.333252,4071.794678
3297.435791,4088.205078,3385.640869,4001.025635,3801.025635,4111.281738,4194.358887,4186.153809,3999.487061,4014.871582,4044.615234,3940.512695,4058.461426,4095.897217
3339.487061,4145.641113,3431.281982,4016.923096,3860.512695,4116.922852,4194.358887,4186.153809,4047.179443,4075.897217,4075.384521,3995.897217,4113.333008,4121.538574
3301.025635,4116.922852,3408.717773,4000,3832.307617,4107.692383,4199.487305,4186.666504,4031.794678,4050.256348,4054.871582,3963.5896,4094.871582,4102.05127
3236.923096,4048.717773,3353.846191,3971.281982,3770.256348,4097.94873,4200.512695,4187.179199,3984.102539,3988.717773,4021.025635,3906.153809,4035.384521,4073.845947
3246.153809,4057.435791,3356.410156,3976.410156,3767.179443,4097.94873,4197.436035,4188.717773,3988.717773,3990.256348,4031.794678,3921.53833,4037.435791,4087.179443
3304.102539,4128.717773,3409.743408,3998.974365,3816.410156,4107.179199,4196.922852,4190.256348,4041.025635,4047.179443,4058.461426,3973.845947,4096.410156,4113.333008
3335.897461,4173.333008,3450.256348,4008.717773,3868.717773,4114.871582,4197.436035,4189.230469,4078.461426,4095.384521,4068.205078,4006.153809,4137.94873,4126.666504
3314.358887,4155.897461,3436.923096,4002.05127,3866.153809,4113.333008,4200.512695,4187.692383,4063.076904,4076.923096,4060,3993.845947,4124.102539,4116.410156
3283.076904,4118.461426,3400.512695,3989.743408,3821.025635,4108.205078,4202.05127,4190.256348,4034.871582,4029.743408,4042.563965,3962.05127,4090.769043,4102.563965
3304.615234,4133.846191,3416.410156,3993.333252,3831.794678,4109.230469,4199.487305,4192.820313,4057.435791,4054.358887,4047.179443,3984.102539,4112.820313,4114.358887
3322.563965,4163.07666,3442.05127,3998.461426,3860.512695,4113.846191,4197.436035,4192.307617,4072.820313,4087.179443,4060,4018.974365,4148.205078,4124.102539
3297.435791,4156.410156,3425.128174,3988.717773,3834.358887,4112.820313,4194.358887,4191.281738,4051.794678,4063.076904,4052.307617,4008.205078,4138.461426,4107.692383
3289.230713,4147.692383,3414.871826,3984.102539,3821.025635,4110.256348,4196.410156,4190.256348,4058.461426,4056.923096,4043.5896,3993.845947,4125.641113,4104.102539
3343.5896,4196.410156,3467.692139,4001.53833,3885.128174,4115.897461,4201.538574,4188.205078,4103.589844,4114.358887,4063.076904,4041.53833,4176.410156,4134.871582
3357.94873,4213.846191,3482.05127,4001.025635,3905.640869,4118.461426,4201.025391,4188.205078,4089.743408,4113.846191,4063.5896,4057.435791,4200.512695,4132.307617
3327.179443,4185.12793,3454.871826,3984.102539,3863.076904,4110.769043,4195.384277,4189.230469,4058.461426,4078.974365,4048.205078,4030.769043,4174.358887,4111.281738
3315.897461,4185.12793,3457.435791,3983.5896,3857.435791,4108.717773,4195.897461,4190.256348,4068.205078,4082.563965,4044.615234,4031.281982,4165.641113,4115.897461
3332.820313,4224.102539,3482.563965,3995.384521,3908.717773,4117.436035,4199.487305,4189.743652,4094.871582,4116.410156,4052.307617,4063.076904,4191.794922,4133.846191
3318.461426,4217.436035,3468.205078,3988.205078,3909.743408,4116.922852,4200.512695,4190.256348,4094.358887,4120.512695,4047.692139,4056.923096,4188.717773,4127.692383
3310.256348,4200.512695,3461.53833,3980.512695,3889.743408,4114.358887,4198.461426,4191.281738,4090.256348,4111.281738,4045.640869,4044.102539,4184.615234,4124.615234
3328.205078,4219.487305,3482.05127,3986.666504,3907.179443,4116.410156,4198.974121,4190.769043,4090.769043,4116.410156,4052.307617,4060,4202.563965,4129.743652
3336.410156,4238.974121,3494.871826,3990.769043,3920,4117.436035,4198.974121,4188.717773,4093.845947,4131.281738,4057.435791,4079.487061,4216.410156,4131.281738
3324.615234,4225.12793,3487.179443,3982.563965,3898.461426,4115.897461,4197.436035,4190.256348,4095.384521,4123.07666,4049.743408,4070.769043,4208.205078,4126.666504
3340,4234.871582,3500.512695,3981.53833,3918.461426,4120.512695,4199.487305,4190.256348,4110.769043,4131.794922,4054.358887,4080,4223.589844,4140.512695
3354.871826,4254.871582,3520,3986.153809,3948.717773,4123.07666,4202.563965,4187.179199,4124.615234,4160.512695,4065.128174,4107.179199,4250.256348,4149.743652
3362.05127,4270.769043,3534.358887,3992.307617,3942.05127,4122.05127,4199.487305,4188.717773,4135.897461,4176.922852,4069.743408,4126.666504,4269.743652,4148.717773
3397.435791,4312.820313,3567.179443,4006.153809,3957.435791,4129.743652,4194.871582,4191.281738,4166.153809,4203.07666,4084.615234,4156.922852,4303.589844,4159.487305
3411.794678,4335.384277,3580.512695,4009.743408,3980,4136.410156,4195.897461,4189.743652,4172.307617,4214.871582,4094.871582,4174.358887,4314.358887,4168.205078
3390.256348,4315.384277,3563.5896,3998.461426,3978.461426,4131.794922,4200,4189.743652,4144.102539,4192.820313,4084.615234,4158.461426,4294.358887,4160.512695
3380.512695,4301.538574,3555.384521,3992.820313,3977.94873,4127.179199,4201.025391,4190.769043,4135.897461,4179.487305,4077.435791,4142.05127,4285.641113,4155.384277
3397.94873,4312.307617,3569.230713,3998.461426,3983.5896,4131.794922,4195.897461,4187.179199,4160,4201.538574,4089.743408,4159.487305,4303.589844,4160
3396.923096,4310.256348,3568.205078,3998.974365,3966.153809,4135.897461,4193.846191,4187.692383,4165.12793,4196.410156,4088.717773,4164.102539,4305.12793,4156.410156
3396.923096,4324.615234,3575.897461,3997.435791,3975.897217,4138.461426,4197.94873,4190.769043,4176.922852,4196.922852,4087.179443,4168.205078,4308.717773,4158.461426
3379.487061,4313.846191,3565.128174,3986.666504,3981.53833,4134.871582,4200.512695,4190.256348,4162.05127,4192.307617,4089.230713,4162.563965,4294.871582,4156.410156
3363.076904,4284.102539,3544.615234,3976.923096,3969.230713,4130.769043,4197.94873,4188.717773,4125.12793,4171.794922,4087.692139,4148.205078,4276.922852,4155.384277
3375.384521,4291.794922,3557.435791,3981.53833,3973.333252,4133.846191,4198.461426,4191.794922,4135.384277,4173.333008,4088.205078,4157.94873,4286.666504,4162.05127
3399.487061,4317.94873,3585.128174,3988.717773,3986.153809,4138.974121,4201.025391,4193.333008,4177.94873,4198.461426,4099.487305,4190.256348,4310.256348,4169.230469
3377.435791,4288.205078,3558.461426,3974.871582,3949.743408,4132.307617,4198.461426,4192.307617,4154.871582,4172.820313,4085.128174,4171.281738,4287.692383,4156.922852
3366.153809,4281.538574,3548.205078,3970.769043,3947.179443,4129.743652,4193.846191,4191.794922,4136.922852,4159.487305,4074.871582,4155.384277,4278.461426,4164.615234
3409.230713,4344.102539,3603.5896,3991.281982,4011.794678,4140.512695,4196.410156,4191.281738,4185.641113,4216.410156,4103.07666,4205.12793,4330.256348,4192.820313
3456.410156,4392.820313,3654.871826,4011.281982,4058.461426,4148.717773,4198.974121,4188.717773,4219.487305,4265.641113,4124.615234,4256.922852,4379.487305,4210.256348
3430.256348,4362.05127,3630.256348,4002.563965,4030.769043,4143.589844,4196.410156,4187.179199,4187.179199,4235.384277,4098.461426,4230.256348,4351.281738,4186.666504
3398.461426,4333.846191,3602.05127,3987.179443,4003.076904,4136.410156,4191.281738,4186.666504,4171.794922,4203.589844,4091.281982,4199.487305,4320,4171.794922
3420,4358.461426,3624.615234,3991.281982,4022.05127,4138.461426,4193.333008,4185.641113,4197.94873,4220,4120,4215.384277,4344.102539,4187.692383
3439.487061,4375.384277,3642.05127,3997.94873,4038.974365,4140.512695,4199.487305,4186.666504,4212.307617,4243.07666,4123.07666,4229.230469,4363.07666,4198.974121
3445.128174,4375.384277,3638.461426,3996.410156,4036.923096,4140,4200.512695,4189.743652,4215.897461,4267.179199,4117.94873,4237.94873,4370.769043,4197.436035
3462.05127,4385.641113,3645.128174,3995.897217,4041.53833,4141.538574,4195.897461,4191.794922,4221.538574,4288.205078,4135.897461,4251.281738,4387.692383,4198.461426
3480,4410.256348,3665.640869,4004.102539,4065.640869,4147.692383,4194.871582,4193.333008,4225.12793,4294.871582,4147.692383,4270.256348,4407.179199,4204.102539
3482.563965,4426.153809,3679.487061,4010.256348,4080.512695,4151.281738,4198.974121,4193.846191,4229.743652,4288.717773,4138.974121,4287.179199,4416.410156,4211.281738
3498.461426,4443.589844,3697.435791,4014.358887,4091.281982,4153.846191,4198.461426,4190.769043,4249.743652,4303.589844,4142.05127,4301.538574,4433.333008,4222.563965
3510.256348,4449.743652,3704.102539,4015.384521,4103.07666,4154.358887,4195.897461,4189.230469,4267.179199,4324.615234,4152.307617,4302.563965,4443.589844,4223.07666
3516.923096,4454.358887,3711.281982,4017.435791,4116.922852,4152.307617,4195.897461,4190.256348,4275.897461,4336.922852,4155.384277,4312.820313,4452.820313,4221.025391
3504.102539,4443.589844,3706.666504,4011.281982,4105.12793,4151.281738,4195.897461,4191.794922,4262.563965,4313.333008,4147.179199,4304.615234,4442.563965,4213.846191
3486.153809,4432.307617,3697.435791,4003.076904,4089.743408,4151.794922,4194.358887,4191.794922,4253.846191,4290.256348,4145.12793,4288.205078,4423.07666,4209.230469
3466.666504,4411.281738,3680.512695,3994.358887,4066.153809,4146.153809,4196.922852,4192.307617,4242.563965,4274.871582,4138.974121,4274.871582,4399.487305,4204.615234
3471.281982,4400.512695,3674.358887,3990.256348,4058.461426,4144.615234,4201.538574,4191.794922,4233.846191,4277.94873,4134.358887,4272.820313,4397.435547,4208.205078
3462.563965,4382.563965,3660,3982.563965,4044.102539,4143.589844,4200.512695,4191.794922,4226.666504,4275.384277,4130.256348,4260,4391.281738,4200
3454.358887,4382.05127,3658.974365,3984.102539,4033.333252,4141.025391,4195.384277,4192.820313,4236.410156,4274.871582,4135.384277,4265.641113,4394.358887,4198.461426
3451.281982,4386.153809,3662.05127,3985.640869,4028.717773,4140.512695,4193.846191,4192.307617,4227.179199,4264.102539,4130.256348,4267.692383,4391.281738,4199.487305
3437.435791,4369.230469,3647.179443,3974.358887,4026.153809,4140.512695,4198.461426,4190.769043,4200.512695,4240,4115.384277,4245.641113,4368.205078,4196.922852
3430.769043,4356.410156,3642.05127,3969.230713,4025.128174,4138.461426,4203.589844,4192.820313,4198.974121,4232.307617,4113.846191,4238.974121,4357.94873,4197.94873
3448.717773,4373.333008,3658.461426,3977.435791,4038.461426,4141.025391,4199.487305,4193.846191,4210.256348,4248.717773,4123.589844,4258.974121,4376.410156,4204.615234
3447.179443,4376.410156,3658.461426,3972.307617,4038.974365,4143.589844,4192.820313,4191.281738,4205.641113,4246.153809,4123.589844,4263.07666,4377.435547,4200.512695
3417.435791,4352.307617,3640,3955.897461,4008.205078,4139.487305,4194.358887,4190.769043,4197.94873,4212.307617,4117.94873,4244.102539,4351.281738,4190.256348
3410.256348,4350.256348,3640.512695,3956.410156,4004.615234,4139.487305,4197.436035,4191.794922,4200,4203.07666,4119.487305,4239.487305,4343.07666,4189.743652
3445.640869,4383.589844,3669.743408,3973.333252,4050.256348,4147.692383,4199.487305,4192.307617,4218.461426,4240.512695,4133.846191,4267.692383,4372.307617,4206.666504
3476.410156,4410.769043,3703.076904,3982.563965,4074.358887,4151.281738,4198.974121,4192.307617,4236.922852,4275.897461,4153.846191,4300.512695,4407.179199,4220
3432.307617,4364.102539,3672.820313,3961.53833,4017.94873,4142.563965,4196.410156,4192.820313,4196.410156,4226.666504,4134.358887,4259.487305,4367.692383,4192.820313
3382.05127,4309.743652,3622.05127,3939.487061,3971.281982,4134.358887,4196.410156,4192.307617,4156.922852,4172.820313,4104.615234,4206.153809,4312.307617,4164.615234
3409.230713,4334.871582,3635.897461,3951.281982,3992.307617,4139.487305,4198.974121,4193.333008,4182.05127,4197.94873,4122.05127,4227.692383,4330.256348,4181.025391
3461.53833,4391.794922,3683.5896,3972.820313,4040,4150.769043,4196.922852,4191.794922,4219.487305,4248.205078,4152.307617,4272.820313,4375.897461,4205.12793
3457.94873,4385.12793,3682.05127,3967.179443,4052.307617,4150.769043,4195.897461,4190.256348,4206.666504,4248.205078,4143.589844,4264.615234,4369.743652,4197.94873
3484.615234,4402.563965,3705.640869,3972.307617,4082.563965,4151.794922,4197.436035,4190.769043,4217.94873,4274.871582,4151.794922,4293.333008,4397.94873,4212.307617
3531.281982,4454.871582,3752.820313,3991.281982,4119.487305,4160,4196.922852,4191.281738,4250.256348,4318.974121,4175.384277,4349.230469,4449.743652,4227.179199
3530.256348,4462.563965,3756.923096,3995.384521,4117.436035,4160,4193.333008,4191.794922,4260.512695,4320.512695,4177.94873,4355.897461,4452.820313,4214.358887
3486.666504,4409.743652,3717.435791,3976.923096,4063.076904,4150.256348,4193.846191,4193.333008,4230.769043,4273.333008,4162.563965,4308.205078,4409.743652,4191.794922
3476.410156,4387.692383,3707.179443,3965.128174,4042.05127,4149.230469,4198.974121,4192.820313,4212.307617,4252.820313,4156.922852,4287.179199,4391.794922,4195.897461
3501.025635,4409.743652,3728.717773,3972.307617,4078.974365,4154.871582,4201.538574,4190.769043,4242.05127,4277.436035,4162.05127,4306.153809,4406.666504,4207.692383
3522.05127,4433.846191,3751.794678,3983.076904,4101.025391,4155.384277,4195.897461,4193.333008,4276.410156,4299.487305,4176.922852,4330.256348,4428.717773,4214.871582
3519.487061,4438.974121,3757.94873,3984.102539,4089.230713,4153.846191,4193.333008,4194.358887,4273.846191,4294.871582,4188.717773,4334.871582,4434.871582,4208.717773
3517.435791,4446.153809,3767.692139,3984.102539,4098.974121,4158.461426,4196.922852,4191.281738,4279.487305,4312.307617,4194.358887,4343.589844,4441.025391,4212.820313
3528.205078,4452.307617,3785.640869,3985.128174,4117.436035,4164.102539,4198.974121,4189.743652,4301.025391,4340,4197.94873,4357.435547,4456.410156,4228.205078
3527.179443,4436.410156,3773.845947,3976.410156,4103.07666,4163.589844,4197.94873,4191.794922,4287.692383,4319.487305,4191.281738,4336.410156,4443.589844,4224.102539
3508.205078,4412.307617,3746.153809,3966.666504,4078.461426,4156.922852,4195.897461,4193.333008,4255.897461,4279.487305,4183.07666,4304.615234,4414.358887,4202.05127
3485.640869,4393.333008,3739.487061,3965.128174,4059.487061,4151.794922,4196.410156,4193.333008,4238.974121,4254.358887,4178.461426,4291.281738,4397.435547,4193.846191
3510.769043,4415.897461,3768.205078,3972.307617,4081.53833,4153.846191,4196.410156,4193.333008,4254.871582,4274.871582,4185.12793,4309.743652,4414.871582,4212.307617
3550.769043,4448.717773,3789.743408,3976.923096,4110.769043,4160.512695,4200,4192.820313,4271.794922,4308.205078,4191.281738,4327.179199,4433.333008,4222.563965
3553.333252,4450.256348,3791.281982,3978.461426,4102.563965,4159.487305,4202.05127,4192.307617,4265.641113,4311.281738,4192.307617,4325.641113,4437.435547,4217.436035
3537.435791,4434.358887,3785.128174,3978.974365,4083.076904,4154.871582,4200,4192.820313,4253.846191,4289.743652,4186.666504,4313.333008,4431.281738,4211.281738
3575.897461,4466.666504,3815.897461,3991.794678,4120.512695,4162.05127,4195.897461,4192.820313,4280,4316.410156,4200.512695,4342.563965,4462.05127,4231.794922
3597.94873,4488.205078,3837.435791,3998.461426,4131.281738,4167.179199,4197.436035,4192.820313,4290.256348,4331.281738,4212.820313,4362.563965,4485.12793,4240.512695
3575.897461,4479.487305,3831.794678,3993.333252,4113.846191,4163.589844,4199.487305,4193.846191,4274.871582,4314.358887,4208.205078,4348.205078,4475.897461,4235.897461
3567.179443,4474.871582,3825.640869,3991.281982,4121.025391,4164.102539,4200,4193.846191,4272.307617,4317.436035,4202.05127,4340.512695,4469.230469,4237.436035
3573.333252,4465.641113,3824.615234,3989.230713,4117.94873,4166.666504,4200,4191.281738,4276.410156,4321.538574,4198.974121,4337.436035,4468.205078,4236.410156
3549.230713,4430.769043,3800,3973.333252,4080,4158.974121,4200,4192.307617,4257.94873,4283.07666,4184.102539,4304.102539,4438.974121,4216.410156
3545.640869,4433.846191,3797.435791,3968.717773,4080,4155.897461,4197.436035,4193.846191,4260.512695,4270.256348,4186.153809,4303.07666,4434.358887,4215.897461
3576.410156,4463.07666,3826.153809,3981.025635,4103.07666,4164.102539,4196.922852,4192.307617,4276.922852,4295.897461,4203.07666,4333.846191,4458.974121,4232.307617
3617.94873,4492.307617,3862.563965,3996.923096,4130.769043,4172.820313,4200,4189.743652,4293.333008,4332.307617,4217.94873,4359.487305,4488.717773,4249.743652
3652.307617,4516.922852,3890.769043,4007.179443,4156.410156,4176.410156,4201.538574,4192.307617,4315.384277,4365.12793,4228.717773,4383.589844,4517.435547,4260
3668.205078,4521.025391,3904.615234,4011.281982,4153.333008,4175.897461,4199.487305,4196.922852,4325.641113,4371.794922,4232.820313,4395.384277,4533.333008,4258.974121
3685.128174,4533.333008,3921.53833,4015.384521,4162.05127,4176.410156,4197.94873,4194.871582,4330.769043,4380,4234.358887,4398.461426,4545.12793,4262.05127
3706.666504,4566.666504,3946.153809,4022.563965,4190.769043,4180.512695,4196.410156,4190.256348,4341.025391,4403.589844,4240.512695,4415.897461,4564.615234,4273.333008
3706.666504,4568.717773,3951.794678,4022.05127,4187.692383,4178.974121,4193.846191,4190.256348,4331.794922,4398.974121,4241.025391,4422.05127,4567.692383,4270.256348
3676.923096,4524.102539,3920.512695,4007.179443,4165.12793,4173.846191,4196.410156,4192.820313,4298.461426,4366.153809,4221.025391,4382.563965,4534.358887,4253.333008
3672.820313,4514.358887,3905.640869,4004.102539,4175.897461,4179.487305,4201.025391,4193.333008,4306.153809,4371.281738,4210.769043,4368.717773,4524.615234,4255.384277
3692.307617,4537.435547,3924.102539,4013.845947,4180.512695,4184.102539,4198.974121,4195.384277,4333.846191,4385.12793,4220,4393.846191,4544.615234,4266.153809
3714.358887,4557.94873,3953.333252,4021.025635,4181.538574,4181.538574,4192.820313,4196.410156,4348.717773,4403.589844,4234.358887,4418.974121,4568.205078,4271.281738
3699.487061,4546.153809,3944.102539,4010.256348,4170.769043,4181.025391,4194.358887,4192.820313,4335.384277,4402.563965,4230.256348,4408.205078,4555.897461,4260.512695
3691.281982,4540.512695,3943.076904,4008.205078,4166.666504,4184.615234,4200,4191.794922,4322.05127,4391.281738,4226.153809,4402.563965,4548.205078,4263.589844
3720.512695,4558.461426,3970.256348,4022.05127,4191.281738,4187.179199,4202.563965,4194.871582,4331.281738,4408.205078,4234.358887,4417.94873,4569.230469,4278.461426
3754.358887,4580.512695,3993.333252,4030.256348,4218.974121,4188.717773,4198.974121,4195.384277,4351.281738,4443.589844,4246.153809,4437.435547,4593.333008,4282.563965
3742.563965,4570.769043,3986.153809,4022.05127,4193.333008,4189.230469,4196.922852,4194.358887,4334.358887,4424.102539,4238.974121,4427.692383,4583.07666,4266.666504
3733.845947,4572.820313,3991.794678,4016.923096,4188.717773,4189.230469,4196.410156,4195.384277,4325.641113,4404.102539,4230.256348,4422.563965,4581.538574,4270.256348
3741.53833,4580.512695,3999.487061,4018.974365,4210.769043,4189.230469,4198.461426,4196.410156,4341.025391,4414.871582,4229.743652,4424.615234,4585.641113,4278.461426
3751.794678,4578.974121,4000,4023.5896,4202.563965,4191.794922,4200.512695,4195.897461,4342.563965,4417.94873,4234.871582,4424.102539,4583.07666,4278.974121
3751.281982,4573.846191,4005.128174,4020.512695,4179.487305,4191.281738,4200,4195.897461,4332.820313,4409.230469,4229.230469,4417.94873,4578.974121,4273.846191
3768.717773,4597.94873,4040.512695,4025.640869,4202.05127,4192.307617,4195.897461,4196.410156,4365.12793,4434.871582,4234.871582,4439.487305,4606.153809,4286.666504
3810.769043,4645.641113,4089.743408,4043.5896,4242.05127,4201.025391,4193.846191,4196.410156,4403.589844,4479.487305,4260.512695,4483.07666,4656.922852,4305.641113
3811.281982,4650.256348,4089.743408,4043.5896,4241.025391,4205.12793,4196.922852,4193.846191,4393.333008,4471.794922,4267.692383,4481.025391,4661.025391,4301.538574
3775.897461,4616.410156,4057.94873,4030.769043,4225.641113,4196.922852,4199.487305,4193.333008,4371.794922,4434.871582,4255.384277,4442.563965,4625.12793,4289.230469
3786.666504,4617.94873,4065.640869,4034.358887,4234.358887,4197.94873,4200,4194.871582,4377.435547,4438.974121,4254.358887,4436.410156,4627.692383,4297.94873
3847.692139,4671.794922,4118.461426,4052.307617,4269.743652,4213.333008,4200,4194.871582,4410.256348,4500,4271.281738,4487.179199,4685.641113,4317.94873
3850.256348,4682.05127,4127.692383,4051.794678,4263.589844,4216.410156,4198.974121,4194.871582,4410.256348,4508.717773,4270.769043,4504.102539,4697.94873,4308.717773
3816.923096,4658.461426,4103.07666,4043.076904,4223.07666,4205.12793,4196.410156,4197.94873,4383.07666,4465.12793,4254.871582,4473.846191,4663.589844,4292.820313
3811.794678,4650.256348,4093.845947,4040,4204.102539,4203.07666,4197.94873,4196.922852,4373.846191,4449.743652,4240.512695,4446.153809,4648.717773,4290.769043
3831.794678,4662.563965,4112.820313,4044.615234,4222.05127,4209.230469,4201.538574,4193.333008,4388.717773,4477.94873,4241.025391,4455.897461,4669.743652,4300
3825.128174,4648.717773,4105.641113,4038.974365,4207.179199,4207.692383,4202.05127,4195.897461,4371.794922,4465.641113,4235.384277,4449.230469,4664.102539,4295.384277
3821.025635,4640,4096.922852,4031.281982,4178.974121,4205.641113,4194.871582,4197.94873,4361.025391,4446.666504,4228.205078,4435.384277,4651.794922,4288.205078
3827.692139,4644.102539,4112.307617,4032.307617,4172.307617,4207.692383,4193.846191,4194.871582,4372.307617,4455.897461,4228.717773,4429.743652,4654.358887,4287.692383
3831.794678,4644.615234,4128.205078,4034.871582,4187.692383,4207.692383,4198.974121,4194.358887,4360,4449.230469,4232.307617,4419.487305,4654.871582,4291.281738
3825.640869,4632.820313,4121.538574,4028.717773,4188.717773,4204.102539,4201.538574,4200,4334.871582,4422.05127,4221.538574,4399.487305,4640,4287.692383
3848.205078,4648.205078,4141.025391,4034.871582,4192.307617,4207.179199,4200.512695,4201.025391,4353.333008,4442.05127,4218.461426,4416.410156,4657.435547,4299.487305
3867.692139,4662.05127,4165.12793,4044.615234,4196.922852,4209.743652,4201.025391,4200,4369.230469,4461.025391,4219.487305,4435.897461,4676.410156,4304.102539
3871.794678,4667.179199,4173.846191,4047.179443,4202.563965,4212.820313,4199.487305,4198.974121,4364.615234,4455.897461,4218.461426,4437.435547,4678.461426,4301.538574
3886.666504,4685.641113,4192.820313,4051.281982,4208.205078,4216.410156,4196.410156,4197.436035,4371.281738,4466.666504,4223.07666,4449.743652,4693.333008,4311.794922
3902.563965,4696.922852,4216.410156,4054.358887,4217.436035,4215.897461,4197.94873,4196.410156,4375.384277,4480,4224.615234,4460,4705.12793,4323.07666
3899.487061,4680.512695,4216.410156,4049.230713,4220,4214.358887,4203.07666,4195.897461,4368.205078,4480,4213.333008,4449.230469,4694.358887,4314.871582
3904.102539,4669.230469,4213.333008,4047.692139,4212.307617,4215.384277,4201.025391,4195.384277,4369.743652,4485.12793,4207.179199,4447.179199,4692.307617,4312.820313
3920.512695,4680.512695,4228.205078,4053.333252,4219.487305,4218.461426,4193.846191,4195.897461,4375.897461,4485.641113,4212.820313,4460.512695,4704.615234,4316.410156
3903.076904,4673.846191,4228.717773,4050.769043,4216.922852,4218.974121,4195.897461,4199.487305,4363.589844,4459.487305,4209.743652,4450.256348,4685.641113,4304.102539
3911.281982,4685.641113,4247.179199,4054.871582,4222.05127,4220,4201.538574,4198.974121,4370.769043,4477.435547,4219.487305,4462.05127,4692.307617,4314.358887
3950.256348,4705.12793,4275.384277,4063.5896,4233.333008,4219.487305,4198.974121,4195.384277,4384.102539,4511.794922,4231.281738,4483.589844,4724.102539,4331.281738
3961.025635,4706.666504,4285.641113,4064.102539,4241.538574,4217.436035,4198.461426,4195.897461,4386.153809,4516.922852,4231.281738,4491.794922,4731.794922,4327.179199
3943.5896,4696.922852,4288.717773,4063.076904,4231.281738,4219.487305,4200,4200.512695,4385.12793,4511.281738,4229.230469,4498.974121,4722.563965,4320
3954.358887,4710.769043,4312.307617,4075.384521,4235.897461,4223.589844,4194.871582,4200.512695,4390.769043,4522.05127,4235.897461,4517.435547,4734.358887,4325.12793
3960.512695,4712.820313,4322.563965,4078.974365,4241.025391,4224.102539,4193.846191,4196.410156,4384.102539,4515.897461,4227.179199,4514.871582,4727.692383,4317.94873
3956.923096,4703.589844,4328.205078,4078.461426,4237.94873,4222.05127,4199.487305,4196.410156,4374.358887,4511.794922,4215.384277,4515.384277,4715.897461,4320
3962.05127,4697.435547,4332.820313,4081.025635,4230.256348,4220,4201.538574,4194.871582,4356.410156,4515.384277,4205.641113,4514.871582,4712.820313,4327.692383
3994.871582,4718.974121,4354.871582,4091.281982,4252.307617,4222.05127,4196.922852,4192.820313,4370.769043,4543.07666,4205.641113,4530.769043,4731.281738,4333.846191
4012.307617,4728.205078,4376.410156,4097.436035,4263.589844,4225.12793,4194.358887,4197.436035,4396.410156,4560.512695,4210.769043,4554.358887,4743.07666,4331.281738
4017.435791,4731.794922,4384.102539,4098.974121,4261.025391,4227.179199,4194.358887,4200.512695,4394.358887,4553.846191,4220,4562.563965,4745.12793,4334.871582
4029.743408,4743.07666,4392.820313,4101.025391,4277.436035,4224.615234,4198.461426,4198.974121,4386.153809,4556.922852,4224.615234,4563.07666,4748.205078,4337.436035
4048.717773,4746.666504,4421.025391,4107.179199,4295.384277,4223.589844,4200.512695,4197.94873,4401.025391,4583.07666,4228.205078,4578.974121,4760.512695,4338.974121
4042.563965,4723.589844,4428.205078,4108.717773,4277.436035,4225.641113,4198.461426,4198.974121,4397.435547,4576.410156,4220.512695,4576.410156,4749.743652,4327.692383
4043.5896,4720.512695,4426.153809,4110.256348,4274.871582,4228.205078,4193.333008,4197.94873,4389.743652,4568.205078,4215.384277,4572.820313,4741.025391,4325.641113
4076.410156,4747.179199,4457.435547,4121.025391,4292.820313,4230.769043,4193.333008,4200.512695,4402.563965,4593.846191,4231.794922,4602.05127,4764.615234,4337.94873
4105.12793,4760.512695,4485.641113,4135.897461,4299.487305,4235.897461,4199.487305,4201.025391,4409.743652,4605.641113,4250.256348,4628.205078,4781.538574,4348.205078
4122.563965,4768.205078,4495.897461,4146.666504,4314.871582,4240,4201.025391,4198.461426,4425.12793,4618.461426,4251.281738,4646.153809,4787.692383,4354.358887
4128.205078,4766.153809,4506.153809,4145.641113,4323.589844,4237.436035,4201.538574,4198.974121,4436.410156,4633.846191,4243.589844,4656.922852,4792.820313,4357.435547
4143.589844,4770.769043,4530.256348,4149.230469,4325.12793,4235.897461,4202.05127,4202.05127,4436.922852,4640,4244.615234,4666.153809,4803.07666,4356.410156
4156.922852,4771.794922,4540.512695,4157.94873,4334.871582,4236.922852,4201.538574,4202.05127,4432.307617,4634.358887,4235.384277,4670.769043,4799.487305,4350.769043
4177.94873,4778.461426,4556.922852,4165.12793,4353.333008,4242.05127,4198.461426,4199.487305,4441.538574,4652.307617,4230.256348,4691.794922,4806.666504,4356.922852
4187.179199,4773.333008,4569.230469,4165.641113,4341.025391,4244.102539,4199.487305,4199.487305,4426.666504,4648.717773,4224.615234,4692.307617,4797.435547,4353.333008
4199.487305,4770.769043,4583.589844,4173.333008,4343.07666,4244.102539,4200.512695,4200,4411.794922,4640,4212.307617,4692.820313,4783.589844,4353.333008
4221.025391,4769.743652,4595.897461,4183.589844,4364.615234,4245.641113,4200,4202.05127,4411.794922,4650.256348,4200,4706.666504,4786.666504,4361.025391
4250.769043,4777.435547,4609.743652,4189.743652,4371.281738,4247.692383,4199.487305,4203.07666,4404.102539,4658.974121,4193.333008,4719.487305,4798.974121,4364.615234
4255.897461,4773.333008,4611.794922,4190.256348,4343.07666,4244.615234,4198.974121,4201.025391,4389.743652,4635.384277,4180,4716.410156,4786.666504,4354.358887
4285.641113,4798.974121,4651.281738,4206.153809,4371.281738,4247.179199,4198.461426,4201.025391,4426.153809,4654.358887,4191.281738,4760,4812.820313,4374.358887
4340,4845.12793,4704.615234,4229.230469,4440.512695,4256.922852,4201.025391,4201.538574,4467.179199,4717.94873,4211.281738,4815.897461,4860.512695,4398.974121
4350.769043,4839.487305,4701.538574,4229.743652,4429.743652,4255.897461,4202.563965,4198.974121,4462.563965,4733.333008,4203.589844,4813.333008,4849.230469,4388.205078
4327.179199,4797.94873,4673.333008,4221.538574,4373.846191,4246.666504,4201.538574,4200,4453.846191,4704.615234,4188.205078,4796.410156,4818.461426,4372.820313
4343.07666,4803.07666,4686.153809,4230.256348,4390.256348,4249.743652,4197.94873,4202.563965,4460.512695,4702.05127,4186.153809,4819.487305,4829.230469,4382.563965
4374.871582,4827.692383,4705.12793,4240.512695,4428.717773,4254.358887,4195.897461,4201.538574,4454.871582,4711.794922,4179.487305,4840,4839.487305,4384.102539
4390.769043,4831.281738,4711.794922,4244.615234,4433.333008,4252.820313,4196.410156,4201.025391,4464.615234,4711.794922,4180,4844.615234,4837.94873,4387.179199
4418.974121,4843.07666,4740,4257.436035,4456.410156,4257.436035,4197.94873,4202.05127,4496.410156,4732.307617,4190.256348,4859.487305,4853.846191,4400
4447.179199,4852.820313,4763.589844,4269.743652,4472.307617,4264.102539,4201.025391,4200.512695,4505.641113,4753.846191,4175.897461,4869.230469,4859.487305,4396.410156
4466.153809,4842.563965,4770.256348,4275.384277,4457.94873,4263.07666,4201.025391,4199.487305,4502.05127,4753.333008,4156.922852,4877.94873,4857.435547,4387.179199
4486.153809,4839.487305,4782.563965,4284.102539,4469.743652,4263.07666,4199.487305,4201.025391,4513.333008,4747.179199,4158.461426,4890.256348,4861.538574,4391.281738
4521.025391,4865.641113,4816.922852,4301.025391,4513.333008,4268.717773,4198.461426,4200.512695,4545.12793,4769.743652,4172.307617,4913.333008,4872.307617,4403.589844
4543.589844,4873.846191,4835.897461,4310.769043,4516.922852,4268.717773,4199.487305,4200,4549.743652,4781.538574,4182.563965,4921.025391,4873.333008,4407.179199
4574.358887,4875.897461,4851.281738,4319.487305,4521.538574,4267.692383,4199.487305,4198.974121,4550.256348,4789.743652,4201.025391,4929.743652,4885.641113,4412.820313
4594.871582,4872.820313,4864.615234,4325.12793,4518.974121,4269.230469,4197.94873,4200.512695,4565.641113,4796.410156,4213.846191,4938.974121,4889.743652,4410.769043
4612.307617,4870.769043,4885.12793,4332.820313,4503.589844,4271.281738,4194.358887,4204.615234,4583.589844,4798.974121,4223.07666,4955.384277,4889.743652,4409.743652
4616.922852,4854.358887,4883.589844,4330.256348,4497.94873,4269.743652,4195.384277,4205.641113,4576.410156,4780,4230.769043,4949.743652,4872.307617,4401.025391
4627.692383,4850.769043,4885.641113,4329.230469,4516.410156,4269.230469,4199.487305,4202.05127,4580.512695,4781.538574,4252.307617,4950.256348,4868.205078,4404.102539
4652.307617,4858.974121,4902.05127,4342.563965,4521.538574,4271.794922,4200.512695,4201.025391,4595.897461,4796.410156,4277.436035,4966.666504,4880.512695,4416.410156
4681.025391,4862.05127,4914.358887,4356.410156,4526.153809,4274.358887,4198.974121,4201.538574,4603.07666,4799.487305,4291.794922,4982.563965,4882.563965,4417.435547
4692.820313,4852.307617,4913.846191,4356.922852,4538.461426,4273.333008,4198.974121,4201.025391,4598.974121,4794.358887,4302.05127,4988.717773,4865.12793,4406.153809
4721.538574,4863.589844,4940.512695,4367.179199,4560,4273.333008,4198.974121,4202.05127,4612.820313,4806.666504,4324.102539,5010.256348,4875.384277,4416.922852
4768.205078,4894.358887,4983.589844,4391.794922,4583.07666,4278.974121,4201.025391,4201.538574,4637.94873,4831.281738,4345.12793,5042.563965,4906.153809,4433.846191
4787.179199,4905.641113,5001.538574,4406.666504,4598.974121,4284.615234,4203.07666,4198.974121,4652.820313,4847.692383,4358.974121,5064.102539,4914.871582,4438.461426
4787.692383,4890.769043,5003.589844,4404.615234,4607.179199,4283.589844,4203.07666,4198.974121,4657.435547,4846.153809,4369.743652,5066.666504,4902.05127,4431.794922
4813.846191,4878.461426,5010.256348,4404.102539,4607.692383,4280,4200.512695,4203.07666,4670.256348,4841.538574,4375.384277,5063.07666,4894.358887,4427.179199
4851.281738,4888.205078,5027.692383,4419.487305,4607.692383,4280.512695,4197.436035,4205.641113,4692.307617,4860.512695,4390.769043,5078.974121,4907.179199,4429.743652
4863.589844,4904.102539,5054.871582,4437.435547,4618.974121,4284.102539,4196.922852,4206.666504,4703.07666,4874.358887,4416.410156,5102.05127,4924.615234,4437.435547
4863.589844,4906.153809,5072.820313,4444.102539,4633.333008,4287.692383,4197.436035,4205.12793,4703.07666,4868.717773,4428.205078,5108.205078,4917.94873,4434.871582
4849.743652,4868.205078,5048.717773,4437.435547,4608.205078,4284.102539,4198.974121,4205.641113,4683.589844,4841.025391,4418.974121,5085.12793,4870.769043,4417.435547
4864.102539,4848.717773,5044.615234,4442.563965,4601.538574,4280,4200.512695,4205.12793,4676.410156,4838.974121,4427.179199,5089.230469,4857.435547,4419.487305
4902.05127,4869.743652,5078.974121,4458.461426,4634.871582,4287.179199,4201.538574,4205.12793,4691.281738,4860.512695,4447.692383,5115.897461,4883.589844,4429.230469
4913.846191,4876.410156,5090.256348,4464.615234,4641.025391,4290.769043,4200,4207.179199,4705.641113,4864.102539,4446.666504,5118.461426,4881.025391,4424.102539
4894.358887,4842.563965,5066.153809,4457.435547,4611.281738,4282.563965,4199.487305,4207.179199,4697.94873,4831.794922,4434.358887,5097.94873,4842.563965,4413.846191
4940.512695,4870.256348,5104.615234,4474.358887,4658.974121,4288.205078,4200,4204.615234,4718.461426,4853.846191,4463.589844,5145.641113,4869.743652,4439.487305
4980,4890.769043,5138.461426,4491.281738,4698.461426,4295.897461,4204.615234,4204.615234,4728.205078,4880.512695,4481.538574,5189.230469,4890.769043,4447.179199
4972.820313,4857.94873,5123.07666,4488.205078,4674.358887,4290.769043,4205.12793,4207.179199,4713.846191,4863.589844,4471.794922,5177.435547,4862.563965,4434.358887
5000,4863.589844,5136.410156,4497.435547,4684.615234,4292.820313,4201.025391,4207.179199,4730.256348,4871.794922,4485.641113,5189.230469,4867.179199,4440
5043.07666,4897.435547,5177.435547,4518.461426,4716.922852,4303.589844,4198.461426,4208.717773,4762.563965,4896.922852,4511.281738,5228.205078,4893.846191,4446.153809
5016.410156,4857.435547,5153.333008,4511.794922,4676.922852,4297.94873,4200,4208.717773,4733.333008,4849.230469,4500,5202.563965,4848.205078,4421.025391
5004.102539,4823.589844,5132.307617,4512.307617,4660.512695,4293.333008,4202.05127,4205.641113,4708.717773,4823.07666,4497.435547,5178.461426,4815.384277,4422.563965
5054.871582,4855.384277,5173.846191,4542.563965,4714.358887,4300.512695,4205.641113,4208.205078,4743.07666,4874.358887,4525.641113,5222.05127,4853.333008,4451.281738
5081.025391,4868.205078,5195.384277,4555.897461,4732.820313,4298.461426,4206.153809,4212.820313,4761.538574,4888.205078,4536.410156,5248.717773,4868.205078,4451.281738
5081.025391,4854.358887,5186.666504,4548.205078,4716.922852,4296.410156,4201.538574,4209.230469,4754.358887,4865.641113,4531.281738,5238.974121,4850.769043,4434.871582
5085.641113,4843.589844,5185.641113,4551.794922,4715.897461,4300,4198.461426,4206.153809,4758.974121,4863.07666,4535.384277,5236.922852,4838.461426,4430.769043
5064.615234,4806.153809,5165.12793,4553.333008,4706.666504,4294.358887,4198.461426,4209.230469,4751.281738,4840,4532.307617,5211.794922,4803.589844,4418.974121
5034.358887,4752.820313,5126.666504,4543.07666,4683.589844,4287.692383,4200.512695,4208.717773,4727.692383,4791.794922,4520.512695,5162.05127,4751.281738,4405.641113
5061.538574,4757.94873,5138.974121,4553.846191,4701.538574,4293.846191,4202.563965,4206.666504,4749.230469,4804.615234,4537.435547,5175.384277,4757.435547,4418.461426
5111.794922,4796.922852,5178.461426,4577.94873,4736.922852,4300.512695,4203.589844,4210.256348,4788.717773,4845.641113,4568.205078,5225.641113,4801.538574,4435.897461
5129.743652,4806.666504,5195.384277,4587.179199,4747.692383,4299.487305,4201.025391,4211.281738,4796.922852,4851.794922,4582.563965,5245.641113,4810.769043,4438.974121
5113.333008,4770.769043,5176.922852,4582.05127,4730.769043,4298.461426,4198.461426,4207.179199,4774.358887,4817.94873,4585.12793,5236.922852,4776.922852,4424.615234
5135.897461,4764.102539,5182.563965,4594.358887,4750.256348,4303.589844,4200,4207.692383,4768.205078,4809.230469,4605.641113,5256.922852,4782.563965,4431.281738
5196.410156,4801.025391,5218.461426,4612.820313,4780.512695,4308.205078,4203.589844,4210.256348,4775.384277,4830.769043,4612.307617,5301.025391,4793.333008,4466.153809
5286.666504,4814.358887,5277.94873,4622.563965,4781.538574,4308.205078,4203.589844,4208.205078,4791.794922,4859.487305,4616.922852,5366.153809,4802.05127,4502.05127
5338.974121,4803.589844,5308.205078,4634.358887,4762.05127,4303.589844,4200,4206.666504,4795.897461,4849.743652,4650.256348,5403.589844,4832.307617,4508.717773
5389.230469,4976.410156,5325.12793,4648.717773,4773.333008,4302.05127,4195.897461,4207.179199,4803.589844,4834.871582,4680.512695,5448.205078,4866.153809,4542.563965
5576.922852,5365.12793,5391.794922,4651.794922,4776.410156,4301.538574,4197.436035,4206.666504,4802.05127,4827.179199,4680.512695,5561.025391,4862.05127,4606.666504
5784.102539,5743.07666,5457.94873,4658.461426,4762.563965,4300,4199.487305,4206.666504,4787.179199,4803.07666,4699.487305,5654.871582,4836.410156,4638.974121
5816.922852,5934.871582,5441.025391,4655.384277,4747.692383,4300,4200,4206.666504,4772.307617,4768.717773,4726.666504,5663.07666,4805.641113,4637.94873
5878.461426,5992.307617,5447.692383,4641.025391,4733.846191,4296.410156,4200,4207.692383,4757.94873,4751.794922,4732.307617,5756.922852,4804.615234,4699.487305
6064.102539,5956.410156,5532.820313,4642.05127,4712.307617,4288.717773,4200,4209.743652,4743.07666,4729.230469,4734.358887,5944.615234,4811.794922,4790.769043
6126.666504,5830.256348,5576.922852,4654.358887,4694.871582,4287.179199,4197.94873,4208.717773,4744.615234,4697.435547,4743.07666,6021.025391,4751.794922,4827.179199
6075.897461,5686.666504,5567.179199,4651.281738,4678.461426,4288.205078,4197.94873,4207.179199,4745.12793,4673.846191,4736.410156,6013.846191,4668.205078,4819.487305
6097.94873,5576.922852,5588.205078,4648.205078,4663.07666,4284.615234,4202.05127,4210.256348,4723.07666,4644.615234,4718.461426,6050.769043,4630.769043,4820
6110.769043,5485.12793,5603.07666,4653.333008,4655.384277,4281.538574,4203.589844,4210.769043,4705.12793,4623.589844,4708.205078,6051.794922,4596.410156,4803.589844
6045.641113,5387.179199,5562.05127,4646.153809,4625.12793,4281.025391,4202.563965,4209.230469,4698.974121,4611.794922,4708.205078,5981.025391,4561.025391,4765.12793
5969.743652,5346.666504,5521.025391,4643.07666,4610.769043,4280.512695,4202.563965,4210.769043,4705.641113,4611.281738,4720,5948.717773,4572.307617,4742.563965
5846.666504,5341.025391,5453.846191,4638.461426,4621.025391,4280.512695,4203.07666,4210.769043,4702.563965,4599.487305,4721.025391,5896.410156,4569.230469,4718.974121
5683.589844,5332.307617,5365.12793,4632.307617,4637.435547,4281.025391,4205.12793,4211.281738,4693.333008,4600.512695,4715.384277,5786.153809,4561.538574,4709.743652
5507.692383,5304.102539,5297.435547,4633.846191,4632.307617,4280.512695,4207.692383,4212.307617,4687.692383,4617.435547,4700,5674.871582,4590.769043,4712.820313
5365.12793,5270.256348,5265.12793,4648.205078,4654.358887,4284.615234,4206.666504,4210.256348,4710.256348,4663.589844,4690.769043,5608.717773,4647.692383,4709.743652
5241.025391,5211.794922,5187.179199,4653.846191,4688.205078,4289.230469,4202.05127,4212.820313,4720,4689.743652,4686.666504,5537.435547,4658.461426,4675.384277
5138.461426,5154.871582,5088.205078,4653.333008,4701.025391,4291.794922,4197.94873,4215.384277,4716.410156,4693.846191,4669.230469,5456.410156,4641.025391,4631.281738
5045.12793,5100,5022.05127,4660.512695,4696.410156,4292.307617,4200.512695,4210.769043,4708.205078,4694.358887,4640.512695,5374.871582,4616.922852,4592.307617
4987.692383,5057.435547,5003.07666,4679.487305,4727.692383,4295.897461,4204.102539,4208.205078,4711.281738,4715.384277,4643.07666,5310.256348,4613.846191,4584.615234
4967.692383,5025.641113,5007.179199,4697.94873,4768.205078,4301.538574,4204.102539,4212.307617,4733.846191,4744.615234,4660.512695,5248.717773,4618.461426,4595.384277
4945.641113,4983.589844,4996.410156,4704.102539,4758.461426,4299.487305,4201.538574,4211.794922,4755.897461,4745.12793,4655.384277,5185.12793,4593.846191,4586.153809
4902.563965,4919.486816,4962.05127,4698.461426,4718.461426,4290.769043,4201.538574,4213.333008,4735.897461,4706.666504,4634.871582,5141.538574,4549.230469,4568.717773
4890.769043,4884.615234,4956.410156,4702.563965,4732.307617,4290.256348,4202.563965,4215.897461,4717.94873,4696.922852,4637.94873,5131.281738,4540.512695,4597.435547
4916.410156,4888.205078,4977.94873,4713.846191,4772.307617,4297.436035,4203.07666,4211.794922,4742.05127,4731.281738,4648.205078,5133.846191,4557.435547,4649.743652
4916.922852,4871.281738,4978.974121,4716.922852,4763.589844,4295.897461,4204.102539,4210.256348,4747.692383,4731.794922,4636.922852,5131.794922,4555.384277,4684.102539
4907.179199,4840,4978.974121,4715.897461,4746.666504,4291.794922,4204.102539,4211.794922,4713.846191,4714.871582,4626.153809,5129.230469,4552.307617,4709.743652
4905.12793,4818.461426,4980,4714.358887,4752.307617,4293.333008,4203.07666,4212.820313,4698.974121,4724.102539,4628.205078,5124.615234,4549.230469,4734.871582
4897.435547,4803.589844,4971.281738,4716.410156,4751.794922,4293.333008,4201.538574,4211.281738,4718.461426,4732.820313,4629.743652,5122.05127,4538.461426,4749.743652
4887.692383,4783.589844,4967.692383,4720.512695,4750.256348,4293.333008,4201.025391,4210.256348,4728.205078,4717.94873,4625.641113,5111.281738,4521.538574,4760.512695
4914.871582,4781.538574,4989.743652,4731.281738,4778.974121,4299.487305,4200,4211.281738,4739.487305,4739.487305,4643.589844,5123.07666,4533.333008,4788.205078
4929.230469,4764.615234,4995.384277,4735.897461,4778.974121,4301.538574,4200,4211.794922,4741.025391,4759.487305,4660.512695,5128.205078,4542.563965,4809.230469
4915.384277,4738.974121,4989.230469,4736.922852,4758.461426,4299.487305,4199.487305,4213.846191,4734.358887,4748.717773,4663.07666,5117.94873,4535.384277,4817.94873
4888.205078,4709.743652,4974.871582,4732.820313,4738.974121,4298.461426,4199.487305,4217.94873,4724.102539,4728.717773,4656.410156,5097.435547,4514.871582,4825.12793
4868.717773,4683.589844,4959.486816,4727.179199,4722.563965,4298.974121,4198.461426,4216.922852,4720,4714.358887,4653.333008,5080,4498.461426,4845.12793
4845.12793,4651.281738,4940.512695,4719.487305,4709.230469,4295.897461,4200,4211.794922,4694.358887,4681.538574,4640,5051.794922,4470.769043,4860.512695
4867.179199,4665.12793,4963.07666,4727.692383,4748.205078,4298.461426,4202.563965,4212.307617,4692.307617,4696.922852,4648.205078,5067.179199,4489.230469,4901.025391
4938.974121,4719.487305,5028.205078,4755.384277,4813.333008,4309.743652,4204.615234,4215.384277,4729.743652,4766.153809,4690.256348,5130.769043,4564.615234,4958.974121
5000.512695,4755.384277,5080,4776.410156,4848.717773,4319.487305,4202.05127,4213.333008,4758.461426,4814.358887,4722.05127,5176.922852,4618.974121,4992.820313
5024.102539,4763.589844,5096.410156,4781.025391,4857.94873,4323.07666,4202.563965,4212.307617,4776.410156,4833.333008,4730.769043,5192.820313,4630.256348,5009.743652
5042.563965,4773.333008,5114.358887,4791.281738,4874.871582,4328.717773,4203.589844,4213.333008,4795.897461,4854.871582,4743.589844,5214.871582,4645.641113,5038.974121
5014.871582,4729.230469,5086.153809,4783.589844,4845.12793,4327.179199,4201.025391,4215.384277,4748.205078,4815.384277,4735.384277,5184.615234,4609.743652,5038.974121
4944.102539,4629.743652,5010.256348,4750.256348,4767.179199,4313.846191,4199.487305,4215.384277,4676.922852,4730.256348,4702.05127,5102.05127,4519.487305,5022.563965
4927.692383,4585.12793,4987.692383,4738.461426,4745.12793,4309.743652,4202.05127,4214.871582,4672.820313,4716.410156,4694.871582,5080,4494.358887,5042.05127
4941.538574,4588.205078,5001.025391,4747.179199,4759.487305,4314.358887,4201.025391,4216.410156,4661.538574,4726.153809,4704.102539,5093.846191,4511.794922,5058.974121
4886.153809,4531.794922,4953.846191,4730.256348,4707.179199,4307.179199,4195.897461,4216.922852,4600.512695,4666.666504,4682.563965,5045.641113,4458.974121,5032.307617
4816.922852,4450.256348,4890.256348,4703.589844,4637.94873,4294.871582,4197.94873,4215.384277,4566.666504,4597.435547,4650.769043,4981.538574,4385.12793,5018.461426
4824.615234,4435.897461,4887.179199,4703.589844,4640,4294.871582,4204.102539,4215.384277,4572.307617,4591.794922,4650.769043,4975.897461,4381.538574,5036.922852
4825.12793,4414.871582,4871.794922,4700,4631.281738,4296.922852,4205.641113,4216.410156,4548.717773,4575.897461,4649.743652,4958.974121,4367.692383,5029.743652
4816.410156,4393.333008,4860.512695,4696.410156,4611.281738,4294.871582,4203.589844,4215.897461,4533.333008,4559.487305,4651.281738,4943.589844,4354.871582,5029.230469
4815.384277,4388.205078,4861.025391,4696.922852,4599.487305,4292.820313,4202.05127,4215.384277,4535.897461,4553.333008,4657.94873,4937.94873,4359.487305,5040.512695
4795.384277,4361.538574,4840.512695,4688.205078,4581.025391,4290.769043,4202.563965,4215.384277,4537.94873,4530.769043,4655.384277,4912.820313,4339.487305,5029.743652
4760.512695,4317.436035,4808.205078,4674.871582,4559.487305,4286.666504,4207.179199,4215.384277,4524.102539,4497.435547,4645.12793,4877.435547,4301.025391,5012.307617
4769.743652,4326.153809,4819.487305,4680.512695,4581.538574,4285.12793,4206.666504,4217.436035,4523.589844,4509.743652,4657.435547,4882.05127,4312.307617,5022.563965
4765.641113,4312.307617,4815.384277,4677.94873,4577.435547,4283.07666,4201.025391,4218.461426,4529.230469,4515.384277,4659.487305,4872.820313,4307.692383,5007.692383
4732.307617,4253.333008,4777.94873,4660,4524.102539,4281.538574,4199.487305,4217.94873,4516.410156,4477.94873,4636.922852,4833.333008,4267.179199,4973.333008
4732.820313,4240,4771.794922,4658.974121,4507.692383,4282.563965,4201.025391,4216.410156,4508.717773,4456.410156,4630.256348,4820.512695,4257.94873,4967.692383
4753.333008,4262.05127,4784.615234,4667.179199,4528.205078,4282.563965,4200,4215.897461,4525.12793,4469.230469,4644.615234,4830.769043,4269.743652,4975.384277
4722.563965,4224.102539,4751.281738,4651.281738,4495.384277,4280.512695,4201.538574,4215.897461,4506.153809,4436.922852,4630.256348,4792.307617,4235.897461,4955.384277
4693.333008,4184.102539,4721.025391,4638.974121,4465.641113,4279.487305,4204.102539,4215.384277,4475.384277,4403.589844,4613.333008,4750.256348,4206.666504,4945.12793
4694.871582,4181.538574,4720,4642.05127,4468.205078,4276.410156,4203.07666,4216.410156,4480.512695,4411.281738,4617.94873,4749.230469,4207.179199,4947.692383
4681.538574,4164.615234,4708.717773,4637.435547,4447.692383,4273.846191,4200.512695,4217.436035,4481.538574,4394.871582,4619.487305,4744.102539,4194.871582,4940.512695
4663.589844,4147.692383,4689.743652,4629.743652,4429.743652,4274.871582,4200,4216.410156,4464.615234,4362.05127,4618.461426,4716.410156,4174.871582,4930.769043
4659.487305,4143.07666,4681.538574,4628.717773,4443.589844,4275.384277,4202.05127,4214.871582,4464.615234,4357.94873,4623.07666,4695.384277,4163.07666,4927.692383
4657.435547,4127.692383,4680,4621.025391,4435.897461,4272.307617,4203.589844,4215.897461,4463.589844,4356.410156,4620,4684.615234,4152.820313,4923.589844
4651.794922,4110.769043,4673.846191,4611.794922,4406.153809,4268.205078,4204.102539,4217.436035,4451.794922,4344.615234,4614.358887,4672.820313,4147.692383,4923.589844
4664.102539,4114.871582,4672.307617,4617.435547,4402.05127,4266.666504,4202.05127,4216.922852,4465.641113,4358.974121,4621.538574,4680,4162.563965,4928.205078
4653.333008,4082.563965,4646.666504,4609.743652,4377.435547,4264.102539,4199.487305,4218.461426,4449.743652,4329.230469,4609.743652,4653.846191,4141.025391,4910.769043
4644.102539,4062.563965,4633.333008,4596.922852,4372.307617,4264.615234,4199.487305,4216.922852,4432.820313,4298.461426,4595.384277,4623.589844,4116.922852,4900.512695
4632.820313,4063.5896,4628.205078,4593.846191,4381.538574,4264.615234,4205.12793,4213.846191,4441.538574,4303.07666,4589.743652,4613.846191,4107.692383,4898.461426
4627.179199,4054.358887,4623.589844,4598.461426,4375.384277,4262.563965,4205.641113,4214.358887,4441.538574,4307.179199,4590.769043,4607.179199,4106.666504,4900.512695
4620.512695,4033.845947,4610.256348,4596.410156,4355.897461,4259.487305,4204.615234,4217.436035,4418.974121,4291.281738,4588.205078,4584.615234,4098.974121,4896.410156
4607.179199,4023.5896,4596.922852,4593.333008,4342.05127,4261.025391,4203.07666,4215.384277,4417.435547,4287.179199,4586.666504,4576.922852,4091.794678,4889.230469
4569.743652,3993.845947,4561.538574,4584.102539,4307.692383,4258.461426,4198.974121,4215.384277,4400,4249.230469,4578.461426,4548.717773,4060,4871.281738
4549.230469,3970.256348,4530.769043,4575.384277,4287.179199,4251.281738,4197.94873,4217.436035,4374.358887,4207.179199,4571.281738,4510.769043,4032.820313,4868.205078
4548.717773,3961.025635,4522.563965,4572.307617,4296.922852,4248.717773,4202.563965,4211.794922,4376.922852,4208.717773,4568.205078,4504.102539,4030.769043,4874.358887
4551.794922,3951.281982,4526.153809,4571.281738,4300.512695,4250.256348,4203.07666,4208.717773,4381.538574,4219.487305,4569.230469,4508.717773,4036.410156,4882.563965
4548.717773,3943.076904,4521.538574,4567.692383,4278.461426,4251.281738,4202.05127,4216.410156,4374.358887,4206.153809,4564.102539,4493.333008,4030.769043,4884.615234
4543.589844,3943.076904,4514.358887,4564.102539,4266.666504,4251.281738,4201.538574,4218.974121,4380.512695,4200.512695,4554.871582,4487.179199,4024.102539,4883.589844
4529.743652,3928.205078,4500.512695,4562.563965,4254.871582,4251.794922,4201.025391,4214.871582,4385.12793,4201.538574,4546.153809,4482.05127,4015.897217,4877.94873
4511.281738,3903.076904,4477.435547,4557.435547,4233.333008,4251.794922,4201.538574,4215.384277,4373.846191,4184.615234,4540,4452.307617,3994.871582,4867.179199
4506.153809,3893.845947,4466.153809,4549.230469,4231.794922,4249.230469,4205.641113,4215.897461,4363.589844,4166.666504,4539.487305,4436.410156,3978.974365,4860
4497.435547,3882.05127,4455.384277,4541.538574,4229.743652,4243.07666,4207.179199,4215.384277,4344.615234,4153.333008,4529.230469,4425.641113,3967.692139,4855.897461
4473.846191,3858.461426,4429.230469,4536.410156,4202.05127,4238.461426,4204.615234,4215.384277,4319.487305,4138.974121,4509.230469,4393.846191,3948.717773,4843.589844
4435.384277,3824.102539,4389.230469,4527.692383,4168.717773,4234.358887,4202.563965,4213.333008,4300,4104.615234,4492.820313,4356.922852,3915.897461,4827.692383
4436.410156,3826.666504,4387.179199,4528.205078,4186.666504,4234.871582,4201.538574,4213.846191,4303.589844,4101.025391,4497.94873,4361.025391,3916.923096,4832.307617
4460,3851.281982,4408.205078,4532.820313,4208.205078,4238.461426,4201.025391,4216.410156,4309.230469,4129.743652,4506.153809,4372.820313,3941.025635,4837.435547
4454.871582,3851.281982,4402.563965,4528.717773,4190.256348,4237.94873,4202.05127,4214.871582,4312.820313,4138.461426,4505.641113,4363.589844,3946.153809,4831.281738
4413.846191,3812.820313,4361.025391,4512.820313,4152.307617,4231.281738,4205.12793,4214.358887,4304.102539,4100.512695,4491.281738,4326.153809,3915.384521,4817.94873
4406.666504,3810.256348,4356.410156,4512.820313,4151.281738,4229.743652,4201.025391,4214.871582,4303.07666,4092.307617,4486.153809,4317.94873,3915.384521,4815.897461
4406.666504,3825.640869,4365.641113,4514.871582,4149.230469,4233.846191,4197.94873,4215.384277,4300.512695,4096.922852,4486.666504,4330.256348,3927.692139,4814.358887
4398.461426,3828.205078,4363.07666,4511.794922,4150.256348,4236.922852,4200,4214.871582,4303.07666,4087.692139,4488.205078,4329.230469,3930.769043,4817.94873
4374.871582,3797.94873,4334.358887,4501.025391,4147.692383,4232.820313,4203.07666,4213.846191,4288.205078,4065.640869,4478.461426,4291.794922,3904.615234,4805.641113
4341.025391,3753.333252,4296.410156,4485.12793,4123.07666,4228.205078,4203.589844,4214.358887,4266.153809,4044.102539,4465.12793,4256.410156,3871.794678,4788.717773
4323.589844,3735.897461,4272.820313,4473.333008,4106.153809,4227.692383,4203.589844,4216.922852,4268.205078,4026.153809,4455.897461,4248.205078,3863.076904,4785.641113
4349.743652,3768.717773,4289.230469,4480,4134.358887,4229.743652,4201.538574,4217.94873,4308.717773,4047.692139,4461.025391,4263.07666,3889.230713,4800
4354.358887,3781.025635,4297.94873,4486.666504,4138.974121,4226.153809,4200,4214.871582,4331.281738,4070.769043,4462.563965,4260.512695,3900.512695,4801.025391
4315.384277,3745.128174,4260.512695,4471.281738,4100,4220.512695,4203.589844,4213.846191,4308.717773,4043.076904,4442.05127,4226.153809,3873.333252,4786.666504
4293.333008,3718.974365,4227.692383,4454.358887,4082.563965,4218.974121,4207.179199,4215.384277,4291.794922,4019.487061,4419.487305,4198.974121,3849.743408,4773.846191
4305.641113,3728.717773,4237.436035,4456.410156,4091.281982,4222.563965,4204.102539,4216.410156,4304.102539,4040.512695,4424.615234,4210.769043,3863.5896,4778.461426
4326.153809,3758.461426,4258.461426,4467.179199,4099.487305,4225.641113,4199.487305,4215.897461,4308.717773,4062.05127,4441.025391,4230.769043,3895.897461,4785.641113
4318.974121,3758.974365,4243.589844,4463.07666,4084.615234,4222.05127,4200.512695,4214.358887,4290.769043,4038.974365,4432.820313,4214.358887,3889.230713,4774.358887
4294.358887,3736.410156,4224.102539,4451.794922,4075.384521,4219.487305,4203.07666,4214.358887,4282.05127,4019.487061,4422.05127,4197.436035,3870.256348,4767.692383
4267.179199,3721.025635,4210.256348,4443.589844,4076.923096,4217.94873,4202.563965,4215.897461,4265.641113,4003.5896,4413.333008,4182.563965,3859.487061,4771.281738
4261.538574,3726.666504,4200.512695,4441.538574,4077.94873,4215.384277,4201.538574,4215.897461,4260.512695,4005.128174,4401.538574,4165.641113,3859.487061,4771.281738
4239.487305,3707.179443,4178.974121,4431.281738,4047.179443,4213.333008,4201.538574,4216.922852,4257.436035,4002.563965,4385.12793,4141.538574,3844.615234,4753.846191
4216.410156,3694.358887,4169.743652,4420,4033.845947,4212.820313,4200,4216.410156,4244.615234,3990.256348,4378.461426,4130.769043,3836.410156,4747.179199
4204.102539,3693.333252,4161.538574,4414.358887,4044.102539,4210.769043,4199.487305,4213.846191,4235.897461,3978.974365,4372.307617,4114.358887,3827.692139,4748.205078
4190.256348,3681.025635,4146.153809,4408.717773,4036.410156,4210.769043,4201.538574,4211.794922,4237.94873,3975.897217,4367.692383,4097.94873,3814.871582,4743.07666
4155.384277,3648.205078,4110.769043,4391.794922,3998.461426,4208.717773,4206.153809,4212.307617,4197.94873,3939.487061,4356.410156,4065.640869,3783.076904,4721.538574
4158.461426,3652.307617,4098.974121,4388.205078,4006.153809,4203.07666,4205.12793,4213.333008,4177.436035,3934.871582,4353.846191,4052.820313,3781.53833,4718.461426
4166.153809,3663.076904,4100.512695,4391.281738,4019.487061,4202.05127,4200,4215.897461,4199.487305,3958.974365,4350.256348,4056.410156,3798.461426,4718.974121
4141.538574,3660,4087.692139,4383.07666,4000.512695,4204.102539,4198.974121,4216.922852,4193.846191,3942.05127,4333.333008,4045.128174,3792.307617,4710.769043
4133.846191,3674.871826,4084.102539,4377.435547,3998.461426,4205.12793,4202.05127,4212.820313,4174.358887,3932.307617,4326.153809,4035.897217,3791.281982,4709.743652
4155.897461,3695.897461,4103.07666,4382.05127,4022.563965,4209.743652,4202.563965,4210.769043,4191.281738,3969.230713,4340,4053.333252,3817.94873,4717.94873
4146.666504,3681.53833,4098.461426,4376.922852,4016.923096,4211.281738,4204.102539,4212.307617,4205.641113,3970.769043,4335.897461,4049.230713,3822.563965,4707.692383
4116.410156,3660.512695,4068.205078,4367.179199,3992.307617,4205.641113,4204.615234,4214.358887,4191.794922,3940,4311.281738,4017.94873,3804.102539,4692.307617
4100.512695,3656.410156,4049.743408,4362.563965,3979.487061,4202.05127,4202.05127,4213.333008,4168.717773,3930.256348,4297.94873,4001.025635,3791.794678,4681.538574
4086.666504,3653.333252,4040.512695,4354.358887,3972.307617,4204.102539,4202.05127,4212.307617,4159.487305,3917.94873,4294.358887,3992.307617,3780,4672.307617
4083.076904,3657.435791,4037.94873,4349.743652,3980.512695,4204.615234,4205.12793,4209.743652,4175.897461,3922.05127,4289.743652,3990.769043,3785.640869,4671.281738
4076.410156,3650.769043,4035.897217,4349.743652,3983.076904,4199.487305,4204.615234,4210.256348,4177.436035,3938.461426,4283.589844,3989.230713,3796.923096,4674.358887
4056.923096,3636.410156,4025.640869,4343.589844,3974.358887,4197.436035,4202.05127,4213.333008,4157.94873,3933.845947,4278.461426,3983.076904,3793.845947,4666.153809
4038.974365,3632.307617,4006.153809,4331.794922,3959.487061,4196.922852,4201.538574,4213.333008,4149.743652,3914.871582,4264.102539,3968.205078,3774.358887,4649.743652
4042.563965,3647.179443,4003.5896,4329.743652,3958.461426,4194.358887,4200,4209.743652,4154.358887,3913.845947,4259.487305,3967.692139,3776.923096,4650.256348
4026.666504,3637.435791,3988.717773,4325.12793,3947.692139,4195.384277,4202.05127,4209.743652,4135.384277,3893.845947,4262.05127,3948.717773,3768.717773,4648.717773
4008.205078,3626.153809,3974.871582,4317.94873,3940.512695,4199.487305,4203.589844,4212.307617,4131.281738,3884.102539,4264.615234,3930.769043,3757.94873,4643.07666
3995.897217,3615.897461,3965.128174,4310.769043,3934.871582,4192.820313,4203.589844,4213.333008,4134.358887,3884.102539,4253.333008,3922.05127,3750.769043,4633.846191
3992.307617,3618.974365,3963.076904,4307.179199,3937.435791,4186.153809,4201.538574,4212.307617,4130.256348,3883.076904,4247.179199,3922.563965,3757.435791,4633.846191
3982.05127,3626.666504,3955.897461,4302.05127,3936.410156,4190.256348,4201.538574,4211.281738,4126.666504,3876.923096,4248.717773,3919.487061,3762.563965,4627.692383
3978.974365,3638.461426,3957.94873,4304.102539,3946.153809,4193.333008,4201.538574,4211.281738,4137.436035,3881.025635,4251.281738,3923.076904,3769.743408,4621.025391
3963.076904,3628.717773,3945.128174,4300.512695,3939.487061,4190.256348,4202.563965,4210.769043,4118.974121,3870.769043,4235.384277,3905.128174,3758.974365,4607.179199
3963.5896,3635.384521,3945.128174,4298.461426,3949.743408,4188.205078,4204.102539,4210.256348,4105.12793,3880,4233.846191,3909.230713,3767.179443,4610.256348
3980,3657.94873,3964.102539,4300,3969.743408,4188.205078,4203.589844,4211.281738,4128.205078,3900.512695,4251.794922,3941.53833,3798.461426,4616.922852
3972.307617,3654.871826,3957.94873,4296.922852,3952.820313,4191.794922,4199.487305,4211.794922,4135.897461,3885.128174,4250.256348,3926.153809,3796.410156,4603.589844
3951.281982,3649.743408,3934.871582,4291.794922,3935.897461,4194.871582,4197.436035,4209.743652,4118.974121,3876.923096,4241.538574,3890.769043,3779.487061,4593.846191
3931.794678,3649.230713,3918.461426,4285.641113,3945.640869,4193.333008,4198.974121,4210.256348,4102.563965,3877.435791,4241.538574,3885.640869,3778.461426,4596.410156
3916.410156,3640.512695,3903.076904,4274.871582,3942.05127,4190.769043,4203.07666,4210.256348,4091.794678,3859.487061,4230.769043,3879.487061,3774.358887,4590.769043
3920,3643.076904,3898.461426,4269.743652,3922.563965,4187.179199,4205.12793,4210.256348,4098.974121,3868.205078,4219.487305,3871.794678,3775.384521,4587.179199
3928.717773,3660,3906.666504,4271.794922,3929.230713,4183.589844,4203.07666,4210.256348,4111.794922,3894.871582,4223.589844,3884.102539,3791.794678,4589.743652
3899.487061,3649.230713,3883.5896,4261.538574,3930.769043,4182.563965,4201.538574,4210.769043,4074.871582,3857.94873,4207.179199,3863.076904,3773.333252,4578.461426
3893.333252,3656.923096,3877.94873,4257.436035,3942.05127,4185.641113,4202.05127,4210.256348,4053.845947,3841.025635,4196.922852,3851.794678,3766.666504,4580
3913.845947,3674.871826,3898.461426,4263.07666,3952.307617,4185.641113,4202.05127,4209.743652,4071.794678,3866.666504,4205.641113,3868.205078,3787.179443,4586.666504
3916.923096,3671.794678,3897.94873,4260.512695,3953.333252,4185.641113,4200,4210.769043,4068.205078,3866.666504,4202.563965,3864.102539,3791.794678,4574.871582
3904.102539,3665.128174,3880.512695,4251.794922,3945.640869,4186.666504,4201.025391,4213.846191,4049.743408,3848.717773,4194.358887,3849.743408,3783.076904,4561.538574
3901.53833,3682.05127,3886.666504,4253.333008,3944.615234,4187.692383,4198.974121,4212.307617,4063.076904,3854.358887,4206.153809,3860,3799.487061,4564.615234
3877.435791,3678.461426,3876.410156,4249.230469,3940,4186.666504,4196.922852,4208.205078,4063.5896,3840,4198.461426,3842.05127,3792.820313,4556.410156
3870.769043,3682.05127,3866.666504,4244.615234,3949.230713,4186.666504,4201.538574,4207.179199,4056.410156,3844.102539,4187.179199,3832.307617,3788.205078,4556.922852
3875.384521,3685.128174,3862.563965,4240,3946.666504,4182.563965,4207.179199,4207.692383,4043.076904,3852.307617,4185.641113,3836.923096,3798.461426,4558.461426
3880,3690.256348,3860,4243.07666,3944.615234,4179.487305,4205.641113,4208.205078,4042.05127,3844.615234,4183.07666,3832.820313,3811.281982,4551.794922
3870.256348,3692.307617,3848.205078,4252.307617,3939.487061,4181.025391,4201.025391,4208.205078,4049.743408,3838.974365,4172.307617,3820.512695,3808.205078,4539.487305
3846.666504,3685.128174,3835.897461,4251.281738,3926.666504,4180.512695,4197.94873,4207.179199,4044.102539,3834.358887,4164.615234,3810.769043,3802.563965,4537.435547
3836.410156,3683.5896,3835.384521,4244.615234,3929.743408,4179.487305,4200.512695,4205.641113,4038.461426,3829.743408,4164.615234,3805.128174,3807.179443,4536.922852
3855.384521,3702.563965,3846.666504,4248.717773,3947.692139,4183.07666,4204.615234,4207.179199,4056.410156,3848.205078,4170.769043,3820.512695,3831.794678,4540
3858.974365,3711.281982,3849.230713,4251.794922,3939.487061,4182.05127,4202.563965,4208.717773,4053.845947,3867.692139,4173.846191,3835.897461,3848.717773,4536.410156
3828.717773,3694.871826,3832.307617,4241.538574,3917.435791,4175.384277,4197.94873,4209.743652,4027.179443,3854.358887,4164.102539,3817.94873,3832.307617,4518.974121
3815.897461,3694.358887,3821.53833,4236.410156,3919.487061,4175.384277,4199.487305,4207.692383,4031.281982,3838.461426,4154.871582,3803.5896,3821.025635,4509.230469
3826.153809,3716.410156,3826.153809,4243.589844,3936.923096,4180.512695,4203.07666,4207.692383,4042.05127,3840,4154.871582,3808.205078,3838.461426,4518.974121
3824.615234,3732.307617,3832.307617,4244.102539,3946.153809,4183.589844,4203.589844,4208.717773,4030.769043,3854.358887,4157.94873,3808.205078,3856.923096,4524.615234
3790.256348,3707.179443,3805.640869,4226.666504,3923.076904,4178.974121,4203.589844,4209.230469,4012.820313,3840.512695,4144.615234,3783.5896,3837.435791,4503.589844
3771.794678,3689.743408,3782.563965,4217.436035,3903.076904,4173.333008,4203.589844,4207.179199,4013.333252,3815.384521,4128.717773,3767.692139,3823.5896,4487.179199
3772.307617,3701.025635,3784.102539,4219.487305,3908.205078,4172.820313,4199.487305,4206.153809,4016.923096,3802.05127,4127.179199,3758.974365,3827.692139,4483.07666
3768.717773,3711.794678,3789.743408,4215.897461,3924.615234,4177.94873,4200.512695,4207.179199,4014.871582,3810.256348,4133.846191,3756.410156,3835.897461,4484.615234
3748.717773,3691.794678,3768.717773,4204.102539,3906.153809,4173.846191,4206.666504,4209.743652,3995.384521,3802.05127,4122.05127,3742.563965,3824.102539,4477.94873
3745.640869,3685.640869,3753.333252,4200.512695,3894.871582,4169.743652,4206.153809,4207.692383,3985.640869,3795.384521,4112.307617,3732.307617,3814.871582,4471.281738
3733.333252,3680.512695,3740,4192.820313,3892.820313,4170.256348,4203.07666,4206.666504,3966.153809,3778.974365,4104.615234,3718.974365,3806.666504,4460
3724.102539,3689.230713,3742.05127,4190.256348,3889.743408,4172.307617,4203.07666,4207.692383,3964.102539,3766.666504,4104.102539,3720,3818.461426,4460
3722.563965,3703.076904,3744.615234,4191.794922,3881.53833,4171.794922,4203.589844,4205.641113,3982.563965,3771.281982,4103.07666,3720,3827.179443,4456.922852
3713.845947,3699.487061,3728.717773,4184.102539,3877.94873,4169.743652,4201.538574,4205.641113,3979.487061,3782.563965,4095.384521,3708.205078,3820,4445.12793
3697.94873,3686.153809,3707.179443,4173.333008,3878.974365,4168.205078,4202.563965,4210.256348,3950.256348,3772.307617,4082.563965,3689.743408,3816.410156,4435.384277
3707.179443,3707.692139,3714.358887,4176.922852,3893.845947,4172.307617,4201.538574,4210.256348,3957.435791,3772.820313,4084.615234,3693.845947,3834.871582,4436.922852
3704.102539,3719.487061,3717.435791,4175.384277,3886.153809,4172.307617,4197.94873,4208.205078,3977.94873,3777.94873,4085.128174,3700,3838.974365,4426.153809
3673.845947,3695.897461,3695.897461,4161.538574,3856.410156,4165.12793,4198.974121,4205.641113,3957.94873,3750.256348,4072.307617,3680,3821.025635,4413.846191
3664.615234,3696.923096,3684.615234,4156.410156,3860,4165.641113,4201.538574,4202.563965,3942.05127,3736.410156,4066.153809,3666.666504,3817.94873,4414.358887
3672.820313,3714.871582,3686.666504,4160,3884.615234,4170.256348,4202.05127,4203.589844,3943.5896,3749.743408,4070.769043,3671.794678,3830.769043,4417.435547
3674.358887,3713.845947,3686.666504,4158.461426,3878.974365,4168.717773,4202.05127,4207.179199,3933.845947,3754.358887,4072.820313,3670.769043,3844.102539,4411.281738
3662.563965,3704.615234,3675.897461,4146.666504,3848.717773,4165.12793,4203.589844,4207.179199,3926.153809,3738.461426,4064.102539,3656.410156,3841.53833,4395.897461
3656.923096,3714.358887,3674.871826,4143.07666,3848.717773,4161.538574,4200,4206.666504,3948.205078,3735.384521,4061.025635,3663.076904,3841.53833,4389.230469
3650.256348,3718.974365,3672.820313,4144.615234,3858.461426,4160.512695,4196.922852,4207.179199,3952.820313,3721.53833,4060.512695,3663.5896,3838.974365,4385.12793
3653.845947,3724.102539,3673.333252,4142.563965,3865.640869,4164.615234,4199.487305,4205.641113,3944.615234,3724.102539,4063.076904,3661.53833,3846.153809,4380.512695
3638.461426,3712.307617,3658.974365,4132.820313,3851.281982,4162.05127,4205.12793,4205.641113,3937.435791,3728.205078,4052.307617,3656.410156,3845.128174,4369.743652
3621.025635,3702.563965,3647.179443,4129.743652,3844.102539,4157.94873,4203.07666,4207.692383,3935.897461,3714.871582,4041.025635,3654.358887,3841.53833,4365.12793
3616.923096,3711.281982,3641.025635,4128.717773,3852.307617,4162.563965,4197.94873,4209.230469,3928.717773,3698.974365,4037.94873,3650.769043,3836.410156,4359.487305
3629.230713,3740.512695,3658.461426,4133.846191,3871.281982,4165.641113,4197.94873,4206.666504,3934.871582,3717.435791,4051.281982,3671.794678,3855.384521,4365.12793
3626.153809,3743.076904,3666.153809,4132.307617,3869.230713,4161.538574,4203.07666,4204.615234,3938.461426,3729.230713,4051.794678,3679.487061,3868.205078,4366.153809
3623.5896,3733.333252,3654.871826,4123.07666,3872.307617,4160.512695,4204.615234,4205.641113,3942.05127,3728.717773,4042.563965,3674.358887,3868.717773,4358.974121
3628.717773,3736.410156,3648.717773,4115.897461,3878.461426,4160,4202.563965,4205.641113,3941.025635,3729.230713,4045.640869,3681.53833,3876.410156,4354.871582
3636.410156,3753.333252,3666.666504,4116.410156,3869.230713,4160,4201.025391,4205.641113,3930.769043,3727.692139,4053.333252,3694.358887,3892.820313,4353.846191
3630.256348,3760,3671.281982,4114.871582,3864.102539,4161.538574,4202.05127,4207.179199,3923.5896,3717.435791,4046.153809,3689.230713,3886.666504,4340
3630.256348,3761.53833,3661.53833,4112.307617,3881.53833,4162.05127,4202.563965,4203.07666,3926.153809,3718.974365,4045.128174,3683.5896,3881.025635,4337.94873
3637.94873,3762.563965,3656.410156,4111.281738,3878.461426,4160,4202.563965,4199.487305,3918.461426,3716.923096,4047.692139,3677.94873,3888.717773,4335.897461
3641.025635,3766.666504,3660,4109.743652,3871.794678,4161.025391,4204.102539,4204.615234,3915.384521,3715.384521,4042.05127,3674.871826,3896.410156,4325.12793
3643.076904,3779.487061,3666.153809,4108.205078,3884.102539,4161.538574,4202.563965,4207.692383,3933.333252,3730.769043,4045.640869,3693.333252,3910.769043,4323.589844
3636.923096,3781.53833,3660,4104.102539,3875.384521,4160,4198.461426,4204.615234,3933.845947,3722.05127,4049.230713,3691.794678,3911.281982,4322.05127
3638.461426,3788.205078,3657.435791,4102.563965,3875.384521,4163.07666,4198.974121,4206.666504,3923.5896,3711.281982,4044.615234,3678.461426,3906.153809,4316.922852
3633.333252,3786.666504,3652.307617,4097.436035,3883.5896,4161.538574,4203.07666,4207.692383,3913.333252,3715.384521,4035.897217,3674.871826,3906.666504,4316.922852
3623.5896,3777.94873,3648.205078,4090.769043,3877.94873,4155.384277,4203.07666,4203.07666,3904.102539,3720.512695,4029.743408,3676.923096,3914.871582,4316.922852
3620,3777.94873,3643.076904,4087.179443,3873.845947,4156.922852,4199.487305,4202.563965,3896.410156,3717.435791,4026.153809,3673.333252,3913.333252,4305.641113
3632.820313,3801.53833,3650.769043,4089.743408,3897.94873,4163.589844,4198.461426,4204.102539,3910.256348,3728.205078,4031.794678,3677.94873,3925.640869,4304.102539
3625.640869,3809.230713,3646.153809,4085.640869,3904.615234,4162.563965,4203.589844,4203.589844,3909.230713,3723.5896,4030.256348,3661.53833,3927.179443,4304.102539
3622.05127,3814.358887,3645.640869,4084.615234,3910.769043,4161.025391,4204.615234,4203.07666,3911.281982,3744.102539,4033.845947,3656.923096,3927.692139,4307.692383
3623.5896,3809.743408,3642.563965,4082.563965,3906.666504,4159.487305,4201.538574,4202.563965,3918.974365,3766.666504,4037.435791,3666.153809,3932.307617,4301.538574
3624.615234,3807.692139,3640,4080,3901.025635,4154.358887,4198.974121,4202.563965,3914.871582,3753.845947,4034.871582,3669.743408,3945.640869,4296.922852
3614.871826,3814.871582,3635.384521,4078.461426,3905.128174,4154.358887,4200,4205.12793,3901.53833,3738.461426,4029.230713,3660.512695,3948.717773,4290.256348
3612.820313,3827.692139,3634.358887,4078.461426,3900.512695,4161.025391,4198.461426,4202.563965,3904.615234,3750.769043,4034.358887,3664.615234,3947.179443,4287.179199
3608.205078,3821.025635,3626.666504,4072.820313,3888.717773,4163.07666,4198.974121,4200,3892.820313,3736.923096,4029.230713,3656.410156,3936.923096,4279.487305
3612.307617,3823.076904,3628.205078,4070.256348,3917.435791,4160.512695,4202.563965,4203.589844,3876.923096,3728.205078,4023.076904,3652.307617,3940.512695,4280
3622.563965,3836.923096,3636.410156,4073.845947,3937.94873,4162.05127,4201.538574,4207.179199,3886.153809,3754.871582,4028.717773,3671.281982,3962.563965,4280.512695
3634.871826,3855.897461,3648.205078,4077.435791,3933.333252,4167.179199,4197.94873,4203.07666,3908.717773,3781.53833,4037.435791,3691.794678,3984.615234,4280
3646.153809,3878.974365,3668.717773,4078.974365,3955.384521,4167.692383,4200.512695,4200.512695,3924.615234,3803.5896,4046.153809,3705.640869,4001.53833,4281.025391
3648.205078,3883.5896,3678.461426,4079.487061,3973.333252,4166.153809,4204.615234,4201.538574,3927.179443,3805.640869,4046.666504,3712.820313,4007.692139,4279.487305
3637.94873,3867.179443,3663.5896,4074.358887,3944.615234,4165.12793,4204.102539,4203.07666,3909.743408,3783.5896,4031.281982,3698.974365,3995.897217,4270.769043
3624.102539,3857.94873,3647.692139,4065.640869,3930.769043,4163.589844,4203.589844,4201.538574,3897.94873,3776.923096,4020.512695,3682.563965,3983.5896,4264.102539
3642.05127,3886.666504,3670.256348,4069.743408,3965.128174,4167.179199,4203.07666,4200,3927.179443,3807.179443,4035.897217,3707.692139,4011.794678,4271.794922
3651.281982,3901.53833,3677.94873,4072.820313,3973.845947,4169.230469,4201.538574,4200.512695,3938.974365,3803.5896,4033.333252,3714.358887,4024.615234,4262.563965
3637.94873,3896.923096,3662.563965,4067.692139,3973.845947,4167.179199,4201.025391,4201.538574,3920,3786.153809,4015.384521,3694.358887,4010.256348,4246.666504
3634.871826,3904.102539,3666.666504,4068.205078,3989.230713,4166.666504,4200.512695,4201.025391,3914.358887,3800,4020,3701.025635,4016.410156,4253.333008
3672.307617,3944.615234,3702.563965,4080,4015.897217,4171.281738,4201.538574,4200.512695,3946.666504,3838.974365,4041.025635,3743.5896,4063.5896,4272.307617
3679.487061,3955.384521,3707.179443,4078.974365,4012.820313,4173.333008,4201.538574,4201.538574,3956.923096,3842.05127,4033.845947,3752.307617,4073.845947,4259.487305
3655.897461,3944.102539,3691.794678,4073.333252,4004.102539,4170.256348,4195.897461,4201.025391,3939.487061,3829.743408,4023.076904,3744.102539,4057.94873,4243.589844
3647.179443,3948.205078,3684.615234,4074.871582,4006.153809,4170.256348,4194.871582,4197.94873,3932.307617,3827.692139,4027.179443,3740.512695,4053.333252,4245.12793
3669.230713,3968.717773,3695.384521,4078.974365,4025.128174,4175.384277,4201.025391,4196.410156,3955.384521,3845.640869,4036.410156,3751.281982,4069.230713,4257.436035
3672.307617,3961.025635,3696.923096,4073.333252,4026.666504,4174.358887,4204.102539,4200,3960,3850.256348,4030.256348,3750.769043,4071.794678,4252.820313
3664.615234,3955.897461,3696.410156,4070.256348,4022.563965,4170.256348,4202.05127,4203.07666,3956.410156,3857.435791,4024.615234,3748.717773,4075.384521,4246.153809
3670.256348,3970.769043,3699.487061,4069.743408,4025.640869,4172.307617,4202.05127,4201.025391,3969.743408,3872.820313,4028.717773,3760,4087.179443,4242.563965
3680.512695,3979.487061,3711.794678,4068.205078,4028.717773,4177.436035,4203.07666,4198.461426,3974.871582,3874.871582,4037.94873,3778.974365,4093.333252,4243.589844
3687.179443,3982.563965,3719.487061,4066.153809,4039.487061,4176.410156,4203.589844,4200,3964.615234,3875.384521,4039.487061,3783.076904,4091.281982,4240
3695.897461,3992.820313,3715.384521,4068.717773,4052.307617,4172.307617,4203.07666,4200.512695,3968.205078,3891.281982,4035.384521,3779.487061,4097.436035,4236.922852
3695.897461,3988.205078,3711.281982,4069.230713,4043.5896,4169.743652,4201.538574,4199.487305,3973.333252,3898.461426,4029.743408,3781.025635,4105.12793,4230.769043
3702.05127,3996.410156,3729.230713,4067.179443,4048.205078,4173.333008,4200.512695,4200.512695,3987.692139,3907.692139,4029.230713,3795.897461,4115.897461,4229.743652
3728.717773,4037.435791,3761.53833,4071.794678,4066.666504,4178.974121,4198.461426,4201.538574,4015.384521,3936.923096,4040.512695,3825.640869,4137.436035,4237.94873
3727.692139,4037.94873,3761.53833,4072.307617,4057.435791,4177.436035,4200,4199.487305,3996.923096,3930.769043,4038.974365,3826.153809,4132.307617,4230.769043
3715.384521,4021.025635,3754.358887,4072.307617,4074.358887,4173.333008,4203.589844,4197.94873,3979.487061,3922.563965,4030.769043,3811.794678,4121.025391,4217.94873
3723.076904,4035.384521,3761.025635,4072.307617,4104.615234,4175.384277,4204.102539,4200,4006.666504,3952.820313,4034.358887,3818.461426,4130.769043,4217.436035
3744.615234,4063.5896,3780,4074.358887,4106.153809,4180,4200.512695,4199.487305,4025.128174,3979.487061,4049.743408,3846.666504,4157.436035,4225.12793
3738.974365,4061.53833,3781.53833,4072.820313,4094.358887,4182.563965,4198.461426,4196.410156,3997.94873,3957.94873,4047.179443,3847.692139,4159.487305,4219.487305
3735.384521,4066.153809,3785.128174,4074.871582,4107.692383,4184.615234,4198.974121,4196.922852,3994.871582,3960,4044.102539,3848.205078,4158.974121,4216.410156
3728.205078,4058.461426,3779.487061,4071.794678,4095.384521,4182.563965,4201.538574,4200,3997.435791,3971.794678,4044.615234,3846.153809,4151.794922,4209.743652
3737.435791,4061.025635,3784.102539,4073.333252,4092.820313,4182.05127,4205.641113,4199.487305,3998.461426,3988.205078,4052.307617,3852.307617,4162.05127,4212.307617
3752.820313,4078.461426,3794.871582,4075.897217,4115.384277,4184.615234,4205.12793,4198.461426,4014.358887,4011.281982,4057.435791,3866.153809,4182.563965,4211.281738
3758.461426,4089.743408,3803.076904,4074.358887,4126.666504,4185.641113,4198.461426,4200.512695,4025.640869,4022.05127,4063.5896,3875.384521,4192.820313,4204.102539
3749.743408,4088.717773,3800.512695,4074.358887,4120,4189.230469,4196.922852,4200,4023.076904,4010.769043,4067.179443,3866.666504,4185.12793,4198.461426
3760.512695,4108.717773,3809.743408,4079.487061,4148.717773,4195.897461,4201.025391,4197.94873,4041.025635,4029.743408,4071.794678,3877.435791,4194.871582,4206.153809
3771.794678,4120.512695,3816.923096,4077.94873,4168.717773,4192.820313,4203.589844,4200.512695,4036.410156,4052.820313,4070.769043,3887.179443,4205.641113,4203.07666
3773.333252,4117.436035,3816.410156,4077.435791,4153.333008,4189.230469,4201.538574,4203.589844,4010.256348,4054.358887,4069.230713,3882.05127,4208.717773,4194.358887
3771.281982,4121.538574,3818.974365,4079.487061,4145.641113,4193.333008,4200.512695,4198.974121,4028.717773,4067.179443,4075.897217,3891.281982,4215.897461,4188.205078
3763.076904,4121.025391,3815.384521,4072.307617,4150.256348,4192.820313,4198.974121,4194.871582,4052.820313,4067.692139,4076.923096,3896.410156,4214.871582,4183.07666
3759.487061,4117.94873,3810.769043,4068.205078,4140,4192.820313,4202.05127,4198.461426,4037.94873,4054.871582,4071.794678,3888.205078,4210.256348,4183.07666
3773.333252,4128.205078,3824.615234,4075.897217,4140,4198.461426,4207.179199,4200.512695,4043.5896,4082.563965,4078.974365,3905.640869,4222.05127,4188.717773
3786.153809,4136.410156,3840.512695,4081.025635,4160.512695,4197.436035,4204.102539,4197.94873,4064.102539,4117.94873,4085.128174,3931.794678,4235.897461,4184.102539
3774.871582,4125.12793,3829.743408,4077.435791,4159.487305,4192.820313,4201.025391,4200,4044.102539,4098.974121,4070.256348,3916.410156,4224.615234,4169.743652
3784.615234,4139.487305,3838.974365,4083.076904,4170.256348,4197.94873,4201.538574,4202.563965,4048.205078,4104.102539,4071.794678,3922.563965,4234.871582,4170.769043
3794.358887,4156.922852,3856.410156,4087.692139,4188.205078,4200,4200.512695,4199.487305,4076.410156,4132.820313,4083.076904,3941.53833,4248.717773,4169.230469
3790.256348,4158.974121,3854.358887,4087.179443,4199.487305,4200.512695,4198.974121,4197.94873,4079.487061,4145.641113,4085.128174,3934.358887,4249.230469,4166.153809
3782.05127,4145.641113,3838.461426,4081.025635,4185.12793,4201.538574,4202.563965,4201.538574,4057.435791,4138.461426,4082.05127,3917.435791,4237.436035,4158.974121
3794.871582,4147.692383,3845.640869,4078.461426,4177.436035,4200,4202.05127,4202.05127,4054.358887,4143.07666,4086.666504,3934.871582,4239.487305,4157.436035
3791.281982,4146.666504,3847.692139,4074.871582,4173.333008,4198.974121,4199.487305,4200,4057.94873,4142.563965,4080,3943.5896,4237.94873,4149.743652
3783.5896,4155.384277,3849.230713,4075.897217,4181.025391,4203.07666,4198.974121,4198.974121,4067.692139,4151.794922,4084.102539,3946.153809,4241.025391,4147.179199
3785.128174,4168.717773,3856.923096,4079.487061,4187.692383,4203.589844,4198.974121,4200,4075.384521,4159.487305,4093.333252,3952.820313,4247.179199,4150.256348
3809.230713,4188.717773,3882.05127,4086.153809,4198.974121,4205.641113,4200.512695,4198.461426,4088.205078,4180.512695,4101.538574,3976.923096,4270.256348,4161.538574
3828.717773,4198.461426,3895.384521,4089.230713,4208.205078,4208.205078,4204.615234,4200,4093.333252,4206.153809,4107.179199,3995.384521,4287.692383,4158.974121
3826.153809,4192.820313,3888.205078,4087.692139,4209.743652,4208.205078,4203.07666,4201.538574,4086.666504,4203.07666,4106.153809,3989.230713,4279.487305,4143.589844
3819.487061,4194.871582,3884.615234,4089.230713,4226.666504,4210.769043,4199.487305,4198.461426,4100.512695,4201.538574,4101.025391,3982.05127,4271.794922,4137.436035
3830.769043,4213.333008,3902.563965,4094.871582,4249.230469,4216.922852,4202.563965,4198.461426,4135.897461,4239.487305,4110.769043,4003.076904,4289.743652,4148.205078
3830.769043,4209.743652,3908.717773,4090.769043,4240,4216.410156,4206.666504,4198.461426,4131.794922,4254.358887,4110.769043,4007.179443,4290.769043,4145.641113
3820,4188.717773,3890.769043,4081.025635,4221.025391,4212.820313,4204.615234,4195.384277,4103.589844,4225.12793,4092.307617,3984.615234,4270.769043,4133.846191
3833.333252,4196.410156,3895.897461,4084.102539,4225.12793,4216.922852,4201.538574,4197.436035,4120.512695,4236.410156,4096.922852,3999.487061,4280,4133.333008
3840.512695,4211.281738,3914.358887,4087.179443,4228.205078,4221.025391,4200,4202.05127,4141.538574,4261.538574,4113.846191,4024.102539,4292.307617,4134.871582
3829.230713,4213.333008,3916.410156,4086.666504,4228.205078,4219.487305,4198.461426,4201.538574,4124.615234,4251.794922,4115.897461,4023.076904,4284.615234,4128.717773
3815.897461,4201.538574,3901.025635,4083.076904,4219.487305,4216.922852,4200,4199.487305,4098.461426,4234.871582,4112.307617,4014.358887,4269.743652,4122.563965
3821.025635,4201.025391,3903.076904,4078.461426,4216.922852,4218.461426,4202.563965,4199.487305,4108.717773,4252.820313,4120.512695,4025.640869,4277.436035,4128.205078
3825.128174,4205.12793,3911.794678,4075.897217,4217.94873,4221.538574,4203.07666,4198.461426,4124.102539,4268.205078,4123.07666,4031.281982,4285.12793,4130.256348
3844.102539,4230.769043,3931.281982,4088.717773,4248.205078,4225.12793,4200.512695,4198.461426,4130.256348,4289.230469,4129.743652,4055.897217,4307.692383,4132.820313
3837.435791,4233.846191,3930.769043,4090.256348,4258.974121,4226.666504,4199.487305,4197.436035,4111.281738,4284.615234,4128.717773,4061.53833,4303.589844,4123.589844
3807.692139,4209.743652,3909.230713,4076.410156,4239.487305,4225.641113,4199.487305,4197.436035,4103.07666,4261.538574,4115.897461,4031.281982,4271.281738,4111.794922
3793.845947,4188.205078,3890.256348,4066.153809,4215.897461,4221.025391,4201.025391,4200.512695,4112.820313,4252.307617,4107.692383,4018.974365,4253.333008,4109.743652
3816.410156,4203.589844,3903.076904,4072.307617,4227.692383,4220.512695,4203.07666,4201.025391,4124.615234,4272.820313,4115.384277,4050.769043,4276.922852,4122.563965
3809.743408,4204.102539,3901.53833,4070.769043,4221.025391,4220,4201.538574,4200,4110.769043,4271.794922,4112.820313,4047.692139,4278.974121,4114.358887
3784.615234,4188.205078,3892.307617,4062.563965,4193.333008,4217.94873,4197.94873,4201.025391,4100,4261.025391,4108.717773,4028.717773,4264.102539,4102.563965
3777.435791,4185.12793,3894.358887,4061.53833,4191.281738,4214.871582,4198.974121,4198.974121,4100,4264.102539,4107.692383,4035.897217,4257.436035,4098.974121
3782.05127,4187.692383,3896.410156,4062.05127,4210.256348,4214.871582,4202.05127,4195.897461,4098.461426,4280.512695,4104.102539,4044.102539,4255.897461,4101.025391
3778.461426,4174.871582,3891.794678,4055.897217,4200.512695,4214.871582,4202.563965,4198.461426,4092.307617,4288.205078,4103.589844,4037.435791,4256.922852,4103.07666
3782.05127,4177.436035,3900.512695,4053.333252,4184.102539,4216.410156,4201.538574,4202.05127,4093.845947,4287.179199,4105.12793,4043.5896,4264.615234,4106.666504
3774.358887,4177.436035,3896.410156,4051.281982,4178.461426,4218.461426,4200.512695,4198.974121,4096.410156,4277.436035,4090.769043,4042.05127,4246.666504,4091.794678
3742.563965,4148.205078,3870.769043,4039.487061,4157.436035,4215.384277,4198.461426,4196.410156,4088.717773,4259.487305,4074.358887,4021.025635,4211.794922,4077.94873
3734.358887,4137.94873,3863.5896,4035.384521,4143.07666,4212.307617,4198.461426,4197.436035,4081.53833,4259.487305,4076.923096,4011.281982,4207.179199,4086.666504
3739.487061,4138.461426,3855.897461,4035.384521,4144.102539,4212.820313,4201.025391,4200,4074.358887,4262.05127,4072.820313,4002.05127,4205.12793,4088.205078
3736.923096,4131.794922,3848.205078,4031.794678,4143.07666,4211.281738,4204.102539,4201.025391,4073.845947,4268.717773,4069.230713,4003.076904,4198.461426,4081.53833
3717.435791,4112.820313,3841.53833,4024.102539,4114.358887,4206.153809,4202.563965,4202.05127,4060,4259.487305,4064.102539,4001.53833,4187.692383,4073.333252
3700,4100.512695,3831.281982,4016.923096,4096.410156,4203.589844,4198.974121,4200.512695,4045.128174,4243.07666,4052.307617,3988.205078,4173.846191,4061.53833
3686.666504,4089.230713,3815.897461,4010.256348,4094.871582,4204.102539,4202.563965,4195.897461,4039.487061,4232.307617,4048.205078,3973.845947,4159.487305,4058.461426
3695.897461,4095.384521,3824.102539,4012.820313,4102.563965,4205.12793,4204.102539,4195.384277,4048.717773,4244.102539,4059.487061,3985.640869,4169.230469,4073.333252
3691.794678,4084.615234,3821.53833,4008.205078,4098.461426,4202.563965,4201.538574,4200.512695,4042.563965,4245.641113,4048.717773,3988.205078,4160.512695,4064.615234
3684.102539,4068.717773,3814.871582,4001.025635,4090.256348,4201.538574,4198.461426,4201.025391,4034.358887,4244.615234,4036.410156,3985.128174,4147.692383,4051.794678
3688.717773,4074.871582,3820.512695,4001.025635,4075.897217,4203.07666,4198.974121,4197.436035,4033.845947,4239.487305,4043.5896,3983.076904,4151.794922,4057.435791
3700,4094.358887,3834.358887,4004.615234,4077.435791,4204.102539,4199.487305,4195.384277,4049.743408,4245.641113,4053.845947,3987.179443,4160,4062.05127
3688.717773,4080.512695,3825.128174,3996.410156,4080.512695,4201.025391,4199.487305,4197.94873,4052.820313,4250.769043,4047.179443,3976.923096,4146.153809,4047.179443
3680,4061.025635,3809.743408,3987.692139,4075.897217,4198.974121,4200.512695,4198.461426,4038.461426,4250.256348,4043.076904,3963.076904,4141.025391,4044.615234
3684.102539,4062.563965,3806.153809,3987.179443,4058.974365,4200.512695,4202.563965,4197.436035,4041.53833,4253.846191,4042.05127,3961.53833,4144.102539,4045.128174
3703.076904,4087.692139,3829.743408,3995.384521,4071.794678,4201.025391,4201.538574,4196.922852,4068.205078,4279.487305,4046.153809,3987.179443,4158.461426,4045.640869
3706.666504,4098.974121,3846.153809,3997.435791,4096.410156,4201.538574,4200.512695,4196.922852,4070.256348,4278.974121,4048.205078,3995.897217,4165.12793,4042.05127
3676.410156,4075.384521,3827.692139,3985.640869,4085.128174,4201.538574,4202.05127,4197.436035,4046.153809,4245.12793,4040.512695,3971.794678,4139.487305,4035.384521
3656.410156,4048.205078,3808.717773,3978.974365,4060.512695,4196.410156,4203.589844,4195.384277,4024.102539,4238.974121,4033.333252,3958.974365,4115.384277,4030.769043
3668.205078,4043.5896,3808.205078,3981.025635,4054.358887,4193.333008,4203.07666,4194.871582,4013.333252,4254.871582,4031.794678,3960,4116.922852,4030.256348
3684.615234,4052.307617,3816.923096,3980.512695,4051.281982,4195.384277,4202.05127,4196.922852,4023.076904,4270.769043,4036.410156,3969.743408,4126.666504,4028.205078
3674.358887,4041.53833,3815.897461,3975.384521,4024.615234,4193.333008,4198.461426,4199.487305,4024.102539,4262.05127,4034.358887,3968.717773,4114.358887,4021.025635
3672.307617,4038.461426,3817.435791,3974.358887,4028.205078,4190.769043,4196.410156,4197.436035,4014.358887,4249.743652,4027.179443,3964.102539,4109.230469,4021.025635
3664.615234,4027.692139,3800.512695,3965.128174,4043.5896,4187.692383,4200.512695,4194.358887,3998.974365,4240.512695,4014.871582,3948.717773,4096.922852,4012.307617
3665.640869,4023.076904,3796.923096,3963.5896,4048.205078,4188.205078,4202.05127,4195.384277,4003.076904,4256.410156,4018.974365,3953.333252,4095.897217,4011.281982
3676.410156,4029.743408,3808.717773,3969.743408,4031.281982,4189.230469,4201.025391,4201.025391,4010.256348,4266.153809,4022.563965,3960.512695,4104.615234,4010.256348
3689.743408,4043.076904,3821.53833,3973.333252,4029.743408,4188.717773,4200,4201.538574,4026.153809,4271.794922,4021.53833,3968.717773,4114.358887,4009.743408
3678.461426,4033.845947,3817.94873,3967.692139,4042.563965,4188.205078,4199.487305,4196.410156,4028.205078,4263.07666,4021.53833,3969.230713,4103.07666,4005.128174
3675.384521,4031.281982,3820,3966.666504,4052.307617,4192.307617,4200,4194.871582,4018.974365,4256.922852,4025.640869,3968.717773,4093.333252,4007.692139
3678.461426,4027.179443,3815.897461,3963.5896,4027.692139,4193.333008,4204.102539,4196.410156,4010.256348,4258.974121,4021.025635,3962.563965,4086.666504,4005.640869
3681.025635,4017.94873,3811.281982,3960,4009.743408,4186.153809,4205.12793,4195.897461,4008.717773,4266.153809,4022.563965,3964.102539,4087.692139,4004.615234
3669.230713,4006.666504,3803.076904,3956.923096,4013.333252,4181.538574,4202.05127,4194.871582,4002.563965,4256.922852,4021.53833,3958.461426,4078.974365,3995.384521
3662.05127,4012.307617,3804.615234,3955.384521,4020,4183.589844,4198.461426,4196.410156,4002.563965,4255.897461,4018.461426,3962.563965,4073.845947,3993.333252
3666.666504,4021.025635,3812.307617,3960,4022.563965,4185.12793,4198.461426,4197.436035,4010.769043,4265.12793,4022.05127,3972.307617,4080.512695,4000.512695
3666.153809,4013.845947,3806.153809,3960,4022.563965,4181.538574,4201.538574,4194.871582,4006.666504,4258.974121,4011.281982,3955.384521,4072.820313,3993.333252
3654.871826,3996.923096,3788.717773,3951.281982,4012.307617,4180.512695,4202.563965,4196.410156,3986.153809,4255.384277,3995.384521,3936.923096,4054.871582,3978.974365
3657.435791,3994.871582,3789.230713,3949.230713,4004.102539,4182.05127,4202.05127,4200,3986.666504,4262.563965,4005.128174,3953.333252,4061.53833,3983.5896
3668.205078,4004.102539,3798.461426,3952.307617,4000,4180.512695,4200.512695,4196.922852,4014.358887,4262.563965,4017.94873,3966.153809,4070.769043,3981.53833
3668.205078,4004.615234,3797.94873,3949.743408,4002.05127,4181.538574,4200,4193.333008,4036.410156,4261.025391,4011.794678,3951.794678,4058.461426,3970.256348
3668.717773,4006.153809,3804.615234,3950.769043,4020.512695,4184.102539,4201.538574,4196.410156,4032.307617,4268.717773,4008.717773,3948.717773,4054.358887,3972.307617
3653.333252,3993.845947,3792.820313,3946.666504,4010.256348,4177.94873,4202.563965,4197.436035,4004.615234,4247.692383,4002.563965,3937.435791,4041.025635,3967.179443
3652.820313,3993.845947,3788.717773,3942.05127,4001.025635,4173.333008,4199.487305,4194.358887,4009.230713,4248.205078,4003.5896,3938.461426,4036.410156,3962.05127
3670.769043,4010.256348,3807.692139,3947.179443,4015.384521,4180,4200.512695,4195.384277,4035.384521,4270.256348,4012.820313,3962.05127,4053.333252,3970.256348
3673.845947,4015.897217,3817.94873,3947.692139,4015.897217,4183.07666,4202.563965,4196.410156,4040.512695,4264.102539,4012.307617,3971.281982,4062.05127,3968.717773
3647.692139,3993.845947,3795.897461,3933.845947,3992.820313,4176.410156,4201.538574,4192.820313,4014.358887,4237.94873,4002.563965,3946.666504,4038.461426,3951.281982
3661.53833,4006.153809,3807.179443,3937.94873,4015.384521,4177.94873,4201.538574,4190.256348,4015.384521,4268.205078,4017.94873,3958.461426,4051.794678,3962.05127
3675.384521,4013.845947,3814.358887,3942.563965,4023.076904,4180.512695,4206.153809,4194.871582,4024.102539,4287.692383,4024.102539,3968.205078,4062.05127,3963.5896
3657.94873,3990.769043,3786.153809,3930.769043,3991.281982,4175.384277,4202.563965,4198.461426,4020,4266.153809,4008.205078,3945.128174,4038.461426,3944.102539
3653.845947,3988.717773,3780,3928.717773,3984.615234,4172.307617,4195.897461,4196.410156,4021.025635,4261.025391,4006.666504,3939.487061,4035.384521,3940
3683.076904,4025.128174,3813.333252,3942.563965,4019.487061,4180.512695,4196.410156,4194.871582,4048.717773,4294.871582,4025.640869,3970.769043,4070.769043,3957.435791
3669.743408,4012.307617,3805.128174,3934.871582,4014.871582,4179.487305,4201.025391,4195.897461,4059.487061,4291.281738,4018.974365,3965.640869,4060.512695,3947.692139
3641.53833,3976.410156,3777.94873,3924.102539,3986.666504,4174.871582,4202.563965,4194.871582,4047.692139,4266.153809,4001.53833,3940,4028.205078,3931.281982
3657.435791,3988.717773,3790.256348,3933.333252,3994.871582,4177.436035,4201.025391,4195.897461,4053.333252,4274.871582,4006.666504,3947.692139,4040.512695,3933.333252
3675.897461,4008.717773,3806.666504,3938.974365,4017.94873,4177.94873,4200.512695,4196.410156,4073.845947,4285.12793,4018.974365,3967.692139,4057.94873,3938.461426
3662.563965,3996.410156,3796.410156,3929.743408,4003.5896,4172.307617,4201.025391,4195.384277,4067.179443,4270.256348,4010.769043,3961.53833,4044.102539,3931.794678
3655.897461,3987.179443,3787.179443,3921.53833,3984.102539,4173.333008,4203.07666,4195.384277,4043.076904,4261.538574,4001.025635,3945.640869,4026.666504,3929.743408
3674.358887,3998.974365,3802.05127,3925.640869,4002.05127,4178.974121,4203.589844,4195.384277,4050.256348,4282.05127,4011.794678,3958.461426,4035.384521,3940
3686.153809,4001.025635,3812.820313,3929.743408,4012.820313,4176.922852,4202.563965,4196.410156,4058.974365,4290.256348,4015.384521,3973.845947,4048.717773,3944.102539
3692.820313,4002.563965,3815.384521,3929.230713,4009.230713,4173.846191,4202.563965,4195.897461,4054.871582,4286.153809,4004.615234,3973.845947,4053.845947,3938.461426
3691.794678,4007.179443,3817.435791,3929.743408,4006.153809,4176.410156,4203.589844,4193.846191,4062.05127,4282.563965,4003.076904,3975.897217,4049.743408,3932.307617
3703.5896,4025.128174,3839.487061,3940.512695,4020,4180,4202.05127,4194.871582,4085.640869,4301.025391,4022.563965,4006.666504,4066.666504,3940.512695
3713.333252,4024.615234,3841.53833,3942.563965,4032.820313,4177.436035,4201.538574,4197.436035,4074.871582,4305.641113,4018.974365,4014.358887,4068.205078,3938.461426
3724.102539,4018.461426,3834.871582,3938.461426,4043.076904,4174.358887,4202.05127,4194.871582,4060.512695,4302.05127,4007.179443,4011.281982,4059.487061,3932.820313
3712.820313,4002.563965,3824.102539,3932.307617,4019.487061,4173.333008,4201.538574,4193.333008,4054.358887,4283.07666,4002.05127,4002.563965,4044.615234,3918.974365
3693.333252,3992.820313,3817.435791,3926.666504,4000,4177.436035,4198.974121,4194.358887,4054.358887,4271.794922,3998.461426,3994.358887,4035.897217,3910.256348
3675.897461,3986.666504,3806.666504,3921.025635,3995.897217,4177.94873,4200,4195.384277,4059.487061,4266.153809,3989.230713,3983.076904,4023.076904,3908.717773
3687.692139,4000,3816.923096,3924.102539,4003.5896,4173.333008,4201.025391,4194.871582,4078.461426,4277.94873,4001.53833,3994.358887,4032.820313,3922.563965
3696.410156,4002.05127,3823.5896,3920,4003.5896,4172.820313,4201.538574,4194.358887,4071.794678,4284.102539,4013.845947,4000,4040,3923.5896
3700,4001.53833,3824.102539,3918.461426,4011.281982,4174.358887,4202.05127,4193.333008,4067.179443,4288.717773,4007.179443,4003.076904,4043.076904,3921.53833
3713.333252,4009.743408,3832.307617,3925.640869,4016.923096,4173.333008,4201.538574,4194.871582,4091.281982,4289.230469,4005.128174,4015.384521,4053.333252,3922.05127
3720,4012.307617,3838.974365,3927.179443,4008.205078,4173.333008,4200.512695,4195.897461,4101.538574,4278.461426,4017.435791,4018.974365,4049.743408,3917.435791
3709.743408,4002.563965,3832.307617,3920,4005.128174,4173.846191,4202.05127,4194.871582,4080.512695,4273.333008,4021.025635,4009.743408,4034.358887,3910.769043
3707.692139,3998.461426,3830.769043,3920.512695,4009.230713,4172.820313,4203.589844,4194.871582,4073.333252,4283.589844,4020,4013.845947,4037.94873,3914.871582
3711.794678,3998.461426,3833.333252,3923.076904,4003.5896,4176.922852,4203.589844,4196.410156,4086.666504,4291.794922,4025.128174,4025.128174,4046.666504,3912.820313
3700,3987.692139,3816.923096,3913.845947,3996.923096,4177.436035,4202.563965,4196.922852,4085.128174,4277.94873,4019.487061,4019.487061,4035.384521,3898.461426
3693.333252,3986.666504,3811.281982,3908.717773,3998.461426,4171.281738,4198.974121,4195.384277,4075.897217,4266.666504,4004.102539,4013.333252,4032.307617,3895.384521
3690.769043,3988.205078,3817.435791,3907.179443,3989.743408,4170.256348,4197.94873,4195.897461,4074.871582,4258.974121,4000.512695,4007.179443,4029.230713,3894.871582
3703.5896,3997.94873,3827.692139,3908.717773,4003.076904,4176.922852,4199.487305,4195.384277,4096.410156,4275.384277,4019.487061,4022.563965,4035.384521,3898.974365
3718.461426,4000.512695,3833.845947,3912.307617,4024.102539,4176.922852,4200,4193.333008,4109.230469,4288.717773,4022.563965,4037.435791,4044.615234,3900
3716.923096,3993.845947,3835.897461,3911.281982,4023.076904,4171.794922,4199.487305,4193.846191,4105.12793,4284.615234,4005.640869,4029.743408,4040.512695,3893.333252
3688.205078,3969.230713,3814.871582,3897.435791,3983.076904,4166.153809,4201.025391,4195.897461,4088.717773,4261.538574,3990.769043,4006.153809,4011.794678,3881.025635
3692.307617,3968.717773,3815.897461,3896.410156,3970.769043,4168.717773,4200.512695,4194.358887,4090.769043,4258.461426,4000,4013.845947,4012.307617,3889.230713
3717.94873,3989.743408,3836.410156,3908.205078,4001.53833,4172.307617,4198.974121,4192.307617,4097.94873,4263.589844,4010.256348,4026.666504,4028.205078,3898.974365
3721.53833,3994.871582,3837.94873,3908.717773,4021.53833,4170.769043,4201.025391,4190.769043,4096.410156,4262.563965,4011.794678,4025.640869,4030.769043,3901.025635
3701.53833,3969.230713,3814.871582,3895.897461,3984.615234,4168.717773,4203.589844,4191.794922,4089.743408,4250.256348,4005.640869,4013.333252,4018.974365,3896.410156
3712.307617,3977.435791,3822.05127,3900,3977.435791,4169.743652,4202.05127,4193.846191,4109.230469,4265.12793,4008.717773,4027.692139,4034.871582,3901.025635
3726.153809,4000,3840.512695,3912.820313,4009.743408,4168.717773,4198.974121,4193.846191,4124.102539,4281.025391,4016.410156,4047.692139,4050.769043,3900.512695
3717.94873,3998.974365,3841.025635,3912.307617,4018.974365,4169.743652,4197.94873,4194.358887,4115.384277,4265.641113,4020.512695,4047.692139,4046.666504,3896.410156
3706.153809,3980.512695,3827.179443,3901.53833,3998.461426,4172.307617,4200.512695,4195.384277,4109.743652,4247.179199,4018.461426,4029.230713,4029.230713,3889.743408
3709.230713,3977.435791,3827.692139,3903.076904,3990.769043,4168.717773,4200.512695,4194.871582,4117.94873,4262.05127,4014.871582,4026.153809,4025.128174,3891.794678
3707.179443,3977.435791,3831.281982,3903.5896,3985.640869,4163.589844,4198.974121,4196.410156,4108.205078,4266.666504,4006.666504,4030.256348,4030.256348,3888.717773
3712.307617,3985.640869,3832.820313,3899.487061,3985.640869,4167.692383,4198.461426,4196.922852,4102.563965,4256.922852,4004.615234,4035.384521,4035.384521,3883.076904
3728.205078,4002.05127,3843.076904,3904.102539,4000,4171.794922,4197.94873,4193.846191,4118.461426,4254.871582,4012.307617,4049.743408,4040,3886.666504
3728.205078,4003.076904,3848.205078,3907.692139,4010.769043,4171.281738,4198.974121,4191.794922,4109.743652,4241.538574,4014.871582,4051.281982,4036.923096,3893.333252
3722.05127,4000.512695,3846.153809,3905.128174,4014.871582,4171.794922,4200,4192.820313,4088.205078,4242.563965,4011.281982,4045.128174,4033.333252,3890.769043
3723.5896,3994.358887,3844.102539,3902.05127,4006.666504,4171.281738,4200.512695,4194.358887,4098.461426,4249.230469,4011.794678,4044.615234,4031.281982,3885.128174
3753.333252,4017.94873,3868.717773,3912.820313,4023.5896,4172.307617,4201.538574,4194.358887,4136.410156,4261.025391,4027.692139,4069.230713,4058.461426,3896.410156
3756.410156,4026.666504,3870.769043,3915.384521,4026.666504,4172.820313,4202.563965,4195.384277,4133.846191,4258.974121,4028.205078,4066.153809,4062.05127,3892.307617
3733.845947,4009.230713,3853.845947,3908.717773,4011.281982,4169.743652,4197.94873,4194.358887,4117.94873,4257.436035,4022.563965,4043.076904,4042.05127,3882.05127
3727.692139,3997.94873,3849.230713,3906.666504,4016.923096,4165.12793,4198.974121,4193.333008,4118.974121,4250.256348,4022.563965,4034.871582,4037.435791,3886.666504
3762.05127,4026.153809,3875.897461,3918.461426,4049.743408,4168.717773,4203.589844,4195.897461,4145.12793,4274.871582,4030.769043,4062.05127,4067.692139,3901.53833
3764.615234,4024.615234,3874.871582,3920,4035.897217,4170.256348,4203.589844,4196.922852,4154.358887,4288.717773,4021.53833,4067.692139,4067.692139,3891.281982
3747.692139,4004.102539,3855.897461,3911.794678,4006.153809,4167.179199,4198.461426,4195.897461,4145.641113,4263.589844,4012.307617,4050.256348,4047.692139,3875.897461
3751.281982,4009.230713,3858.974365,3911.794678,4007.179443,4169.230469,4198.461426,4196.410156,4139.487305,4241.538574,4016.923096,4048.717773,4043.076904,3872.820313
3781.025635,4044.102539,3890.769043,3924.615234,4036.923096,4173.333008,4202.05127,4195.384277,4154.871582,4265.12793,4033.845947,4076.923096,4067.179443,3891.794678
3801.025635,4061.025635,3909.743408,3931.794678,4053.333252,4174.358887,4202.563965,4193.333008,4161.025391,4284.102539,4041.53833,4087.179443,4085.640869,3901.53833
3794.358887,4048.205078,3903.076904,3926.153809,4053.845947,4176.922852,4199.487305,4195.384277,4147.692383,4272.820313,4037.435791,4072.820313,4081.025635,3889.743408
3780.512695,4033.845947,3890.256348,3920,4048.205078,4178.461426,4197.94873,4196.410156,4129.230469,4252.820313,4036.923096,4065.640869,4070.769043,3877.94873
3779.487061,4035.384521,3886.666504,3921.53833,4042.05127,4175.384277,4198.461426,4191.794922,4120,4237.436035,4038.461426,4062.563965,4062.563965,3877.94873
3775.384521,4028.205078,3883.5896,3921.53833,4039.487061,4174.871582,4199.487305,4190.256348,4126.666504,4229.743652,4030.256348,4045.128174,4044.102539,3870.256348
3766.666504,4014.871582,3881.53833,3919.487061,4033.333252,4175.384277,4202.05127,4192.820313,4127.179199,4228.205078,4029.743408,4035.384521,4033.333252,3870.256348
3773.845947,4021.53833,3887.179443,3921.53833,4028.717773,4171.281738,4203.589844,4193.333008,4116.922852,4233.333008,4038.974365,4046.666504,4046.153809,3879.487061
3787.179443,4032.820313,3896.410156,3925.128174,4036.410156,4172.307617,4202.563965,4194.871582,4129.743652,4241.538574,4042.563965,4056.410156,4060,3880.512695
3817.435791,4064.102539,3930.769043,3937.435791,4075.384521,4180.512695,4201.025391,4196.410156,4177.94873,4275.384277,4059.487061,4086.153809,4090.769043,3892.820313
3830.769043,4083.5896,3949.230713,3941.53833,4085.640869,4180,4201.025391,4195.384277,4184.615234,4286.153809,4071.281982,4099.487305,4103.07666,3896.923096
3807.692139,4061.025635,3919.487061,3930.256348,4060.512695,4172.307617,4201.025391,4195.384277,4155.897461,4263.07666,4057.94873,4072.820313,4073.333252,3877.94873
3785.640869,4026.153809,3884.102539,3920,4040.512695,4170.769043,4201.538574,4196.922852,4146.666504,4238.461426,4049.230713,4044.102539,4046.666504,3868.205078
3806.666504,4042.05127,3900.512695,3926.153809,4045.128174,4174.871582,4200.512695,4195.897461,4164.615234,4245.641113,4068.205078,4057.435791,4070.769043,3883.076904
3808.205078,4056.410156,3908.205078,3926.666504,4041.025635,4171.794922,4198.974121,4195.384277,4161.538574,4243.07666,4069.743408,4058.974365,4078.461426,3878.461426
