# H:M:S.f Gyro(x) Gyro(y) F3 F4 P7 FC6 F7 F8 T7 P8 FC5 AF4 T8 O2 O1 AF3
0 0 -25 -8 37 -65 167 -135 30 -26 77 23 -66 4 17 101 
0 0 -23 -18 48 -54 193 -109 54 -16 86 27 -50 20 27 119 
1 0 -4 -8 25 -64 169 -110 26 -39 77 8 -53 11 15 95 
0 0 -34 -18 37 -53 180 -100 43 -25 95 24 -41 18 35 106 
0 0 -17 -13 47 -51 173 -115 53 -19 88 27 -60 19 36 107 
1 0 -59 -19 60 -30 198 -86 71 9 110 42 -43 35 26 118 
1 0 -43 -6 51 -12 204 -65 67 6 122 47 -31 16 2 124 
0 0 -87 -3 40 -1 192 -68 53 -15 100 49 -38 -4 5 130 
1 0 -105 -4 33 -26 179 -81 38 -20 85 46 -43 -1 8 128 
1 0 -131 -6 39 -38 190 -75 55 -10 102 46 -30 17 4 125 
1 0 -161 -3 42 -31 189 -74 70 -20 100 36 -35 5 -3 117 
1 0 -176 -10 33 -37 169 -84 51 -32 78 24 -52 -8 5 111 
1 0 -218 -27 19 -60 148 -101 27 -46 69 6 -63 -14 16 97 
1 0 -193 -18 15 -66 144 -113 22 -53 63 -13 -65 -1 8 76 
1 0 -215 -15 36 -29 173 -88 48 -7 83 19 -40 21 5 100 
1 0 -172 -8 42 -25 163 -95 42 -4 88 26 -46 15 15 107 
0 0 -141 -22 45 -37 140 -101 41 -33 72 13 -47 9 29 85 
0 0 -101 -20 22 -68 112 -115 26 -62 49 -6 -50 -9 -7 56 
0 0 -79 -42 16 -63 129 -97 26 -36 67 19 -52 -15 -32 74 
1 0 -14 -36 7 -89 113 -125 -4 -57 55 -8 -100 -40 -28 63 
1 0 -10 -53 6 -84 95 -134 1 -72 42 -31 -102 -34 -8 39 
1 0 19 -30 13 -46 101 -112 20 -51 60 -24 -69 -13 -18 39 
1 0 5 -20 36 -24 137 -74 45 -20 88 -1 -41 2 -14 75 
1 0 -22 -14 16 -82 111 -113 27 -57 54 -35 -77 -25 -24 56 
1 0 -111 -37 5 -85 110 -124 35 -51 47 -41 -82 -14 -16 39 
1 0 -84 -41 8 -62 101 -123 24 -42 54 -46 -76 -10 -8 31 
1 0 -126 -30 23 -62 92 -126 19 -53 52 -53 -69 -22 -2 40 
1 0 -153 -15 30 -58 125 -107 42 -50 62 -34 -68 -22 -8 55 
1 0 -167 -27 23 -54 169 -87 55 -44 74 -20 -64 -10 -5 61 
1 0 -175 -48 7 -80 164 -118 33 -50 64 -46 -65 -21 -7 45 
0 0 -145 -43 3 -92 165 -143 25 -41 60 -58 -72 -39 -24 33 
0 0 -159 -52 4 -84 188 -129 30 -51 64 -48 -76 -52 -30 35 
0 0 -143 -54 8 -94 177 -133 19 -86 56 -63 -84 -48 -21 35 
0 0 -139 -59 31 -89 175 -136 39 -58 77 -54 -71 -23 -2 51 
0 0 -74 -51 9 -120 150 -169 27 -53 57 -74 -92 -36 -17 26 
0 0 -82 -59 2 -115 142 -156 25 -45 35 -81 -91 -22 -21 9 
0 0 -60 -25 35 -70 159 -115 44 -35 51 -53 -59 13 -3 22 
0 0 -54 -33 53 -37 179 -84 67 -23 74 -21 -24 21 22 48 
0 0 -11 -40 2 -86 130 -132 18 -52 33 -61 -71 -35 -18 25 
0 0 -18 -44 -10 -76 130 -120 9 -31 30 -50 -74 -39 -40 17 
0 0 -34 -20 7 -45 149 -87 28 -26 53 -20 -39 -13 -25 18 
0 0 -90 -40 11 -46 153 -74 53 -30 58 -23 -27 1 11 29 
0 0 -63 -43 -4 -80 132 -98 46 -45 29 -57 -65 -31 -6 16 
0 0 -98 -33 5 -56 152 -76 51 -33 36 -35 -58 -32 -22 25 
0 0 -106 -18 5 -34 142 -64 35 -31 57 -10 -50 -22 -28 38 
0 0 -140 -33 2 -37 119 -65 44 -32 55 -8 -53 -11 -21 37 
0 0 -147 -44 3 -53 115 -76 54 -39 34 -33 -60 -19 -21 17 
0 0 -156 -34 13 -51 137 -85 54 -35 44 -34 -57 -10 -10 26 
0 0 -164 -29 12 -36 135 -80 47 -36 69 -2 -47 4 2 48 
0 0 -143 -24 11 -41 114 -76 44 -43 58 8 -46 3 5 47 
0 0 -175 -23 33 -51 127 -70 60 -13 53 -3 -41 17 24 53 
0 0 -161 -22 17 -63 116 -88 34 -14 47 -42 -53 6 19 32 
0 0 -160 -57 -15 -57 97 -98 8 -42 37 -71 -60 -31 -20 0 
0 0 -84 -50 -29 -79 89 -121 -7 -74 16 -96 -86 -51 -57 -20 
0 0 -77 -45 -3 -73 114 -101 19 -48 34 -67 -79 -23 -33 2 
0 0 -75 -39 -6 -75 93 -102 16 -57 35 -58 -80 -37 -29 -6 
0 0 -72 -57 -8 -76 95 -98 30 -69 30 -52 -74 -48 -39 -11 
0 0 -19 -39 -7 -84 101 -105 27 -71 26 -51 -81 -31 -34 -5 
0 0 -31 -43 13 -47 114 -76 35 -29 51 -25 -55 2 1 13 
0 0 -45 -33 -5 -61 85 -99 13 -34 29 -48 -57 -9 -14 -9 
0 0 -101 -49 -16 -64 85 -105 13 -40 14 -59 -55 -1 -25 -16 
0 0 -58 -48 -15 -57 79 -97 0 -45 24 -56 -57 -9 -30 -22 
0 0 -82 -37 -3 -52 81 -78 9 -32 43 -41 -45 -11 -18 -10 
0 0 -108 -19 10 -54 77 -77 23 -28 34 -39 -48 -2 -5 9 
0 0 -158 -28 25 -48 80 -79 33 -22 26 -44 -50 17 15 15 
0 0 -169 -45 -1 -82 69 -107 4 -39 17 -67 -63 -6 5 -20 
0 0 -148 -33 -5 -84 81 -100 2 -39 31 -62 -57 -18 5 -17 
0 0 -164 -13 33 -19 114 -41 50 -12 69 -14 -29 11 14 28 
0 0 -171 -16 29 -15 104 -41 53 -18 64 -14 -34 17 -5 19 
0 0 -192 -51 1 -43 78 -72 24 -19 35 -39 -42 4 -10 -12 
0 0 -119 -40 -12 -44 48 -79 -2 -18 6 -58 -43 -5 -7 -27 
0 0 -112 -30 7 -17 66 -39 23 10 22 -24 -13 12 7 0 
0 0 -85 -29 3 -29 68 -44 16 6 25 -28 -16 21 2 -6 
0 0 -79 -60 -8 -27 57 -49 6 5 13 -50 -19 20 -3 -27 
0 0 -28 -45 -23 -44 28 -70 -15 -12 -5 -73 -41 -8 -14 -49 
0 0 -17 -51 -11 -49 40 -70 -5 -10 8 -63 -38 -11 -1 -36 
0 0 -13 -48 -6 -63 46 -73 -4 -19 11 -65 -39 -17 -11 -27 
0 0 -61 -62 -1 -50 52 -59 7 -10 9 -60 -27 -16 -18 -20 
0 0 -64 -52 -17 -52 24 -80 -15 -39 -16 -80 -43 -27 -25 -40 
0 0 -102 -59 -24 -62 18 -92 -18 -52 -22 -88 -51 -19 -19 -52 
0 0 -88 -57 -29 -91 7 -112 -23 -48 -22 -99 -63 -38 -40 -67 
0 0 -147 -66 -31 -88 0 -120 -27 -38 -14 -101 -74 -49 -56 -69 
0 0 -161 -62 -29 -78 -4 -116 -32 -56 -11 -97 -82 -38 -50 -66 
0 0 -161 -49 -10 -72 13 -92 -15 -45 -4 -72 -62 -13 -16 -49 
0 0 -165 -56 -30 -89 -6 -107 -31 -44 -13 -76 -66 -31 -22 -57 
0 0 -163 -73 -64 -111 -42 -134 -64 -80 -32 -114 -91 -62 -55 -81 
0 0 -183 -80 -55 -104 -39 -124 -61 -82 -42 -126 -84 -52 -47 -84 
0 0 -163 -65 -40 -98 -22 -111 -46 -61 -45 -105 -75 -33 -23 -75 
0 0 -175 -76 -36 -86 2 -92 -21 -40 -21 -66 -69 -32 -23 -53 
0 0 -109 -66 -42 -84 -9 -101 -27 -54 -20 -80 -76 -45 -48 -59 
0 0 -116 -65 -35 -68 -7 -81 -30 -41 -18 -85 -59 -28 -44 -59 
0 0 -106 -53 -39 -94 -5 -98 -42 -48 -13 -92 -72 -31 -43 -62 
0 0 -96 -72 -19 -92 13 -123 -19 -42 1 -86 -70 -28 -27 -51 
0 0 -48 -64 -24 -95 -25 -150 -36 -60 -25 -111 -82 -39 -31 -69 
0 0 -43 -72 -32 -82 -32 -102 -38 -50 -31 -97 -68 -34 -33 -57 
0 0 -43 -70 -59 -89 -32 -61 -58 -55 -38 -79 -64 -40 -53 -49 
0 0 -96 -84 -53 -57 -24 -8 -55 -56 -38 -42 -48 -31 -35 -33 
0 0 -65 -62 -36 -18 -29 47 -51 -55 -40 -5 -43 -29 -21 -7 
0 0 -89 -55 -32 10 -9 105 -40 -23 -30 37 -27 -17 -23 27 
0 0 -116 -51 -53 -3 -11 126 -61 -26 -41 43 -31 -25 -42 19 
0 0 -171 -56 -50 20 -10 163 -59 -24 -45 48 -18 -22 -37 10 
0 0 -160 -52 -43 52 -27 195 -49 4 -43 57 6 -6 -31 -2 
0 0 -169 -53 -58 45 -65 199 -56 17 -59 36 17 3 -28 -26 
0 1 -203 -61 -65 33 -101 194 -60 2 -77 7 9 -11 -28 -54 
0 1 -210 -60 -61 47 -134 202 -53 -2 -84 -4 7 -4 -27 -82 
0 1 -230 -66 -58 62 -164 222 -48 12 -88 -5 23 4 -10 -99 
0 1 -153 -47 -59 68 -188 232 -48 15 -99 -12 36 -15 -6 -106 
0 1 -137 -45 -49 90 -193 252 -21 35 -89 4 58 -19 -28 -107 
0 1 -132 -39 -60 74 -229 233 -34 27 -102 -22 44 -27 -56 -143 
0 1 -149 -58 -59 83 -245 241 -39 20 -111 -38 46 -20 -32 -160 
1 1 -88 -51 -67 75 -274 231 -53 -3 -124 -51 31 -16 -19 -175 
1 1 -66 -61 -56 76 -262 234 -37 29 -114 -38 36 13 -13 -159 
1 1 -44 -48 -45 77 -242 235 -32 54 -102 -36 49 16 -10 -147 
1 1 -58 -54 -34 99 -218 257 -17 48 -78 -19 70 35 18 -134 
1 0 -54 -43 -55 83 -233 243 -43 12 -99 -29 34 34 10 -142 
1 0 -84 -58 -52 85 -222 259 -32 44 -99 -12 32 18 -2 -132 
1 0 -53 -57 -46 82 -217 257 -22 52 -79 -14 45 -12 -6 -139 
1 0 -160 -79 -34 91 -174 271 -10 44 -53 -18 55 6 17 -131 
1 0 -216 -105 -20 113 -120 323 1 52 -44 12 62 24 21 -82 
1 0 111 55 -93 14 -220 237 -122 -80 -140 -43 -30 -69 -78 -117 
1 0 -242 -39 -23 111 -113 350 -15 3 -74 84 55 17 13 -36 
1 0 -548 -205 68 235 25 502 108 132 53 222 152 91 93 58 
1 0 1074 496 -321 -298 -517 -85 -507 -438 -349 -300 -325 -271 -332 -337 
1 0 1127 534 -362 -310 -558 -100 -524 -423 -438 -352 -296 -178 -316 -384 
1 0 -495 -255 46 272 -11 549 130 222 -2 193 227 199 122 17 
1 0 -750 -435 146 394 125 677 263 306 158 314 295 165 173 111 
1 0 176 19 -93 41 -193 270 -120 -91 -94 -14 -39 -96 -102 -153 
1 0 -174 -127 -33 108 -139 335 -7 55 -81 39 47 22 -2 -117 
1 0 -346 -248 21 161 -128 370 75 145 -42 78 114 48 54 -72 
1 0 21 -50 -61 39 -234 199 -57 -17 -116 -58 7 -28 -41 -164 
1 0 -158 -131 -11 123 -140 276 25 65 -44 12 67 33 19 -122 
0 0 -49 -83 -34 73 -195 215 -17 17 -78 -34 23 -16 -1 -149 
0 0 -81 -95 -24 68 -190 199 -6 1 -74 -33 48 -2 0 -136 
0 0 -68 -103 -33 58 -203 173 -17 -6 -70 -51 38 -9 -8 -154 
0 0 -63 -99 -51 42 -217 164 -34 1 -95 -83 13 -21 -6 -188 
0 0 -68 -101 -48 47 -211 173 -25 11 -102 -79 25 -4 -14 -193 
-1 0 -39 -83 -31 74 -195 169 -13 19 -80 -54 47 13 -18 -176 
-1 0 -41 -78 -26 82 -184 169 -14 20 -69 -44 40 1 -4 -163 
-1 0 -45 -86 -41 44 -194 158 -25 19 -77 -74 7 -5 -4 -172 
-1 0 -30 -82 -28 36 -188 145 -11 39 -67 -85 10 17 -9 -173 
-1 0 -31 -76 -22 62 -182 145 -2 24 -62 -68 29 20 -16 -170 
-1 0 -37 -88 -57 44 -221 117 -31 -18 -102 -78 2 -5 -25 -189 
-1 0 -37 -101 -73 -5 -259 72 -53 -20 -136 -109 -26 -14 -10 -217 
-1 0 -26 -86 -50 -9 -249 73 -43 7 -115 -113 -8 -3 10 -220 
-1 0 -24 -68 -34 26 -226 105 -29 16 -85 -89 9 8 17 -193 
0 0 -21 -64 -35 39 -225 110 -20 15 -87 -77 0 8 16 -173 
0 0 -23 -68 -45 37 -229 101 -22 15 -100 -89 14 6 -9 -177 
0 0 -10 -59 -44 63 -205 121 -11 40 -80 -70 48 17 -22 -158 
0 0 10 -40 -19 94 -168 144 11 75 -39 -27 51 44 7 -128 
0 0 3 -47 -7 82 -160 139 12 62 -26 -30 35 43 10 -128 
0 0 1 -51 -23 56 -172 123 -6 12 -45 -57 30 -3 -26 -126 
1 0 9 -42 -16 66 -157 131 2 -8 -39 -27 34 -19 -29 -93 
1 0 13 -40 -14 59 -160 122 7 -10 -36 -17 15 -11 -24 -93 
1 0 -12 -57 -32 46 -169 109 -1 1 -45 -42 -1 -20 -34 -111 
1 0 7 -46 -31 64 -151 121 -2 15 -34 -30 11 -14 -27 -101 
1 0 4 -37 -5 96 -124 146 21 27 -17 10 51 25 4 -75 
1 0 5 -43 -15 65 -158 118 6 7 -47 -21 40 18 -1 -104 
1 0 -9 -54 -18 48 -168 109 4 15 -47 -41 17 8 -4 -125 
1 0 -10 -61 -7 59 -153 118 15 36 -45 -29 22 14 13 -120 
1 0 -26 -78 -30 19 -191 70 -11 19 -103 -69 11 3 17 -147 
1 0 -19 -81 -54 -17 -220 28 -35 -1 -112 -109 -10 -4 -3 -168 
1 0 -7 -59 -24 36 -160 77 6 38 -41 -58 22 25 -10 -132 
1 0 -5 -46 0 71 -125 115 29 56 -27 -16 47 36 5 -116 
1 0 -10 -58 -22 35 -168 76 -15 6 -76 -60 13 7 11 -153 
1 0 -10 -63 -30 22 -179 50 -22 2 -76 -82 4 6 4 -152 
0 0 -4 -59 -17 21 -163 61 11 25 -51 -65 19 16 -3 -136 
1 0 0 -63 -16 15 -163 76 20 12 -48 -67 15 -12 -3 -138 
1 0 -1 -63 -10 33 -144 81 12 2 -44 -66 8 -29 5 -125 
1 0 3 -51 5 45 -117 75 13 18 -28 -46 16 6 16 -102 
0 0 3 -51 -6 38 -130 64 12 23 -28 -49 19 25 6 -107 
0 0 0 -60 -27 41 -139 58 8 26 -40 -61 20 8 -16 -131 
0 0 -4 -56 -21 33 -129 44 8 35 -53 -61 19 8 -13 -135 
1 0 -4 -50 -13 26 -134 51 9 26 -54 -52 14 9 8 -109 
1 0 9 -42 -20 38 -130 81 10 0 -40 -42 10 4 7 -88 
1 1 11 -42 -16 46 -105 90 5 8 -27 -27 15 27 0 -88 
1 0 13 -50 -26 29 -116 60 -12 25 -41 -33 14 28 -6 -98 
1 0 6 -55 -32 27 -127 54 -3 21 -47 -36 7 5 1 -95 
1 0 9 -50 -17 37 -119 68 10 8 -38 -34 -3 -6 -1 -91 
1 0 5 -58 -15 26 -132 56 -3 12 -46 -43 -6 5 -18 -107 
1 0 7 -67 -27 9 -148 28 -13 17 -64 -58 -3 11 -18 -124 
0 0 -9 -76 -33 8 -148 28 -10 10 -64 -74 -4 7 -10 -130 
0 0 -11 -86 -45 -1 -159 31 -29 -5 -65 -90 -17 -10 -25 -140 
1 0 -7 -87 -46 -9 -152 19 -41 -3 -67 -90 -11 -23 -35 -137 
1 0 -4 -69 -32 9 -120 30 -22 19 -57 -67 15 -10 -17 -109 
1 0 -6 -58 -24 32 -109 58 4 28 -38 -45 27 20 1 -85 
1 0 8 -52 -20 37 -103 63 11 35 -28 -36 27 35 8 -82 
1 0 8 -48 -22 34 -97 56 4 46 -42 -32 16 17 4 -86 
1 0 8 -48 -33 39 -100 64 0 17 -47 -23 9 1 0 -83 
0 0 10 -48 -31 39 -100 65 -1 0 -37 -24 21 19 -2 -82 
0 0 0 -53 -30 16 -103 43 -5 27 -46 -45 21 11 -20 -95 
0 0 -5 -56 -40 -1 -112 17 -14 34 -57 -61 -8 -20 -28 -109 
0 0 12 -48 -23 28 -86 26 2 29 -37 -55 -1 3 -3 -92 
0 0 22 -45 8 49 -48 61 34 40 -15 -37 36 35 17 -63 
0 0 3 -66 -9 24 -64 57 24 28 -28 -44 18 5 5 -80 
0 0 -3 -75 -43 11 -85 26 -14 0 -45 -63 -12 -26 -16 -111 
0 0 6 -53 -20 37 -48 43 8 19 -23 -39 22 16 -4 -80 
0 0 19 -39 2 47 -27 69 40 40 1 -16 40 42 10 -46 
0 0 13 -52 -29 30 -55 62 15 23 -18 -34 12 6 -13 -72 
0 0 13 -57 -46 23 -67 59 4 7 -41 -47 4 -18 -32 -85 
0 0 8 -56 -25 33 -52 52 22 11 -28 -42 12 3 1 -70 
0 0 10 -57 -23 34 -60 35 4 20 -22 -52 6 22 8 -80 
0 0 2 -60 -38 31 -68 52 -10 29 -33 -48 10 17 -27 -91 
0 0 2 -53 -19 42 -58 76 24 31 -25 -23 24 12 -19 -72 
0 0 -2 -51 0 36 -69 58 34 11 -29 -27 21 4 13 -70 
0 0 2 -56 -20 4 -86 26 4 -7 -55 -52 4 -11 3 -91 
0 0 -1 -61 -43 3 -79 22 -2 1 -51 -62 -9 -14 -20 -98 
0 0 8 -54 -18 26 -53 32 27 6 -25 -42 -1 4 3 -75 
0 0 16 -49 6 25 -44 32 40 2 -23 -19 9 17 27 -61 
0 0 15 -52 -17 25 -55 31 13 -5 -34 -17 2 0 0 -73 
1 0 7 -51 -40 34 -63 33 -5 -6 -41 -24 0 -4 -14 -82 
1 0 5 -55 -33 17 -73 19 -1 7 -56 -29 1 15 14 -83 
0 0 6 -59 -28 -3 -85 1 -6 6 -63 -41 -9 8 12 -90 
0 0 5 -61 -39 -9 -87 3 -14 -23 -56 -60 -19 -28 -20 -94 
1 0 0 -75 -48 -23 -91 -5 -21 -30 -66 -73 -31 -29 -13 -110 
1 0 -9 -84 -40 -29 -90 -17 -24 -2 -72 -71 -34 7 12 -122 
1 0 -8 -75 -37 -31 -77 -15 -20 -11 -52 -70 -24 -6 -12 -119 
1 0 -3 -73 -37 -26 -53 2 6 -31 -34 -65 -9 -39 -37 -103 
1 0 5 -72 -22 -2 -37 16 30 -5 -38 -46 0 -17 -11 -81 
1 1 1 -67 -17 7 -32 12 24 25 -38 -32 2 14 16 -69 
1 1 5 -63 -34 -13 -33 1 2 7 -25 -42 1 10 7 -80 
1 1 4 -66 -41 -22 -44 -8 -7 -9 -32 -48 -5 0 -5 -85 
1 1 11 -51 -23 -9 -53 1 7 25 -38 -22 -8 2 12 -60 
1 0 2 -47 -22 -5 -63 11 7 27 -31 -11 -14 -4 24 -52 
1 0 1 -52 -32 -7 -69 4 -15 -20 -34 -24 -24 3 26 -57 
1 0 11 -45 -16 9 -50 13 -4 0 -25 -13 -15 27 34 -34 
1 0 23 -35 4 31 -18 36 30 55 0 14 7 18 22 -9 
1 0 17 -41 1 26 -3 33 34 21 12 12 7 -3 2 -11 
1 0 16 -45 -21 5 -9 6 6 -26 5 -9 -17 6 -1 -23 
1 0 16 -47 -35 -8 -17 -6 -8 -1 -2 -19 -34 10 3 -36 
0 0 9 -52 -13 1 -24 4 5 23 -1 -12 -25 -13 -2 -42 
0 0 7 -51 3 16 -27 14 16 4 -2 -3 -3 -17 -5 -38 
0 0 11 -53 -18 9 -28 2 0 -7 -19 -16 4 6 -2 -43 
0 0 13 -53 -24 5 -28 -2 -15 17 -17 -25 -3 18 -1 -48 
0 0 11 -48 -5 28 -24 28 -2 15 -1 -9 0 11 -11 -38 
0 0 13 -53 -22 25 -30 27 2 -26 -21 -21 -1 -1 -19 -46 
0 0 7 -59 -42 -1 -39 0 -10 -26 -29 -44 -14 4 -6 -61 
0 0 10 -42 -16 10 -34 13 -2 4 0 -24 -10 9 1 -42 
0 0 10 -32 2 43 -23 47 16 11 8 3 10 3 -1 -14 
0 0 9 -46 -20 41 -25 31 7 3 -4 -9 6 -3 -2 -24 
0 0 -4 -68 -44 -8 -45 -6 -17 -19 -13 -39 -26 -23 -15 -56 
0 0 4 -67 -43 -30 -49 -5 -17 -46 -22 -46 -35 -49 -36 -54 
0 0 7 -62 -35 -11 -34 7 -3 -39 -17 -37 -23 -53 -43 -44 
0 0 8 -63 -30 -4 -27 4 3 -28 -7 -31 -21 -38 -31 -45 
0 0 10 -54 -12 9 -24 23 17 -19 -2 -11 -10 -10 -4 -30 
0 0 20 -36 -7 23 -20 42 24 3 1 11 5 6 5 -10 
0 0 13 -41 -31 0 -31 8 0 -5 -16 -3 -7 -2 -6 -22 
0 0 15 -45 -32 8 -34 -3 -6 -10 -17 -7 -12 2 2 -18 
0 0 19 -39 -20 33 -21 24 11 -1 3 0 0 4 -8 -4 
0 0 11 -44 -33 -2 -25 9 0 -16 -11 -18 -9 -15 -37 -19 
0 0 11 -50 -29 -18 -34 -14 -13 -29 -26 -24 -17 -19 -28 -27 
0 0 20 -43 3 11 -21 4 8 -13 2 -2 -7 -2 -10 -14 
0 0 11 -51 -6 -11 -22 -9 4 -15 4 -15 -21 -18 -27 -33 
0 0 -5 -73 -31 -45 -45 -55 -17 -35 -24 -56 -38 -38 -36 -63 
0 0 2 -72 -22 -39 -45 -51 -9 -22 -23 -65 -25 -15 -25 -62 
0 0 5 -68 -12 -33 -33 -18 -2 -7 -18 -53 -16 -2 -34 -61 
0 0 -1 -72 -34 -36 -51 -22 -20 -48 -36 -52 -31 -40 -49 -78 
0 0 -5 -70 -46 -27 -62 -33 -22 -74 -44 -59 -33 -53 -37 -75 
0 0 7 -53 -19 -20 -40 -16 -4 -23 -31 -50 -13 -11 -11 -51 
0 0 3 -50 -4 -9 -26 1 5 19 -18 -22 -3 10 4 -44 
0 0 10 -46 -20 19 -22 13 10 -1 -12 -7 -7 -6 9 -40 
0 0 13 -41 -29 19 -10 18 5 -8 -11 -15 -6 -5 14 -31 
0 0 17 -39 -9 -4 2 16 11 1 9 -9 5 15 17 -14 
0 0 14 -37 8 3 15 21 32 1 28 18 12 19 13 3 
0 0 19 -36 -5 23 13 22 20 11 12 17 3 6 4 4 
0 0 14 -46 -20 0 -16 -5 -7 24 -6 -15 -11 -2 1 -17 
0 0 6 -56 -24 -28 -31 -32 -7 3 -13 -26 -7 -19 -10 -33 
0 0 5 -57 -20 -24 -25 -31 3 -32 -20 -19 -5 -37 -30 -36 
0 0 13 -57 -16 -26 -29 -31 -3 -32 -16 -28 -25 -38 -42 -33 
0 0 22 -57 -5 -35 -19 -29 -2 0 3 -34 -27 -21 -27 -18 
0 0 19 -53 6 -19 8 -3 11 12 9 -13 -3 -2 -8 0 
0 0 14 -46 -9 2 6 9 4 -17 -8 -8 -4 -12 -13 -4 
0 0 25 -29 13 34 19 30 32 5 13 9 7 -5 7 17 
0 0 38 -14 50 58 50 59 70 66 43 43 32 32 45 44 
0 0 8 -44 0 9 5 22 16 39 -9 7 7 16 18 -3 
0 0 -9 -71 -65 -37 -52 -29 -48 -24 -69 -48 -25 -43 -30 -57 
0 0 5 -54 -37 -6 -29 -2 -14 -12 -38 -29 -11 -35 -12 -30 
0 0 23 -40 -8 1 -11 19 15 14 -8 -7 -2 2 3 0 
0 0 7 -60 -39 -37 -37 -23 -20 -3 -38 -36 -18 -14 -33 -26 
0 0 9 -57 -31 -33 -39 -30 -18 -11 -39 -45 -14 -24 -40 -33 
0 0 11 -48 0 -21 -19 -8 5 -6 -24 -35 -9 -11 -25 -24 
0 0 4 -57 -8 -35 -18 -15 -3 -5 -33 -38 -15 -15 -24 -33 
0 0 0 -53 -2 -25 -3 -14 16 1 -21 -28 -7 -22 -9 -22 
0 0 11 -43 11 -14 14 -7 36 10 -6 -18 -12 -23 -4 -1 
0 0 6 -58 -19 -32 -11 -29 -3 4 -31 -35 -36 -33 -32 -22 
0 0 2 -66 -46 -45 -34 -44 -34 -34 -51 -48 -34 -40 -34 -48 
0 0 13 -45 -7 -19 6 -7 11 -25 -14 -16 -2 -7 11 -16 
0 0 15 -40 15 7 38 25 34 19 17 6 -5 7 15 8 
0 0 3 -63 -35 -22 -1 -8 -17 -10 -24 -28 -35 -25 -33 -34 
0 0 2 -67 -49 -47 -17 -41 -28 -29 -46 -46 -26 -20 -38 -52 
0 0 13 -44 -6 -18 20 -13 14 22 -8 -26 3 5 -10 -14 
0 0 8 -49 5 9 24 16 18 20 3 -24 -3 -21 -17 -5 
0 0 4 -68 -26 -7 1 -2 -8 -42 -21 -38 -27 -50 -43 -28 
0 0 1 -68 -31 -30 2 -9 -6 -43 -19 -35 -31 -30 -31 -25 
0 0 14 -55 -11 -22 13 3 0 -17 -2 -27 -33 -24 -11 -10 
0 0 16 -54 -8 2 7 3 -1 -23 -2 -28 -29 -38 -13 -14 
1 1 16 -49 -13 -1 1 -1 4 -16 -6 -24 -11 -18 -6 -21 
1 1 6 -45 -5 -7 4 7 10 8 -3 -17 5 2 17 -19 
1 1 12 -46 5 12 3 18 11 10 6 -12 2 -8 14 -14 
1 0 12 -49 -4 13 2 20 8 2 1 -25 0 -18 -23 -20 
1 1 8 -55 -18 -7 -7 11 -1 4 -24 -35 3 -22 -42 -29 
1 0 2 -63 -21 -16 -4 8 -1 1 -18 -28 -12 -29 -33 -18 
1 0 11 -57 -15 -11 33 33 2 -22 -2 -4 -18 -24 -27 9 
1 0 12 -47 -10 2 76 66 -5 -36 -6 21 -13 -7 -22 32 
1 0 18 -42 3 24 117 99 11 -18 14 48 -18 -1 -9 66 
1 0 32 -33 22 38 145 140 35 -4 32 91 -22 -15 1 107 
0 0 37 -23 19 47 152 167 24 2 25 136 -3 -8 1 133 
0 0 36 -9 9 72 168 199 10 23 42 169 17 27 7 150 
0 0 33 -3 13 73 183 235 17 22 51 197 10 19 11 170 
0 0 38 -8 5 53 174 241 14 -7 23 219 4 -9 -4 191 
0 0 39 0 -2 98 188 260 17 0 43 222 22 22 -23 202 
0 0 45 18 14 146 222 301 31 3 79 223 31 42 -29 193 
0 0 29 2 6 87 201 277 11 -25 41 208 11 0 -24 153 
0 0 17 -33 -24 9 146 186 -26 -22 2 153 -31 -36 -30 104 
0 0 8 -51 -21 11 120 133 -12 2 7 101 -42 -35 -42 75 
0 0 17 -33 13 44 125 130 38 10 25 99 -1 -3 -15 83 
0 0 17 -26 23 49 119 114 46 9 33 99 12 14 5 77 
0 0 12 -46 0 9 83 66 21 12 8 54 -22 -7 -13 31 
0 0 3 -67 -10 -42 42 16 17 -5 -22 4 -21 -18 -20 -1 
0 0 9 -65 0 -29 36 20 26 -25 -3 -11 4 -13 -11 -4 
0 0 13 -58 -3 17 48 58 20 -3 16 1 -1 -22 -17 -10 
0 0 20 -44 0 28 47 61 21 22 11 18 8 3 -2 -3 
0 0 21 -34 25 25 35 31 41 4 8 15 26 34 21 13 
0 0 11 -52 21 6 13 7 42 -4 -11 -1 7 10 -4 -7 
0 0 4 -66 -1 -32 -3 -11 29 26 -31 -11 -6 -1 -31 -42 
0 0 6 -62 11 -42 4 -31 30 38 -4 -21 3 19 -15 -39 
0 0 3 -67 24 -32 8 -41 36 26 14 -55 -3 20 -6 -37 
0 0 -8 -77 5 -37 -27 -49 15 1 -22 -86 -19 1 -22 -74 
0 0 -8 -75 -12 -49 -63 -65 -10 -30 -55 -96 -26 -10 -17 -103 
0 0 -11 -74 -9 -55 -64 -69 -7 -16 -57 -106 -23 -11 -3 -98 
0 0 -11 -69 -11 -53 -60 -64 -3 17 -48 -103 -11 -11 -17 -93 
0 0 -7 -63 -8 -28 -56 -52 1 15 -41 -73 0 -1 -11 -92 
0 0 3 -63 7 -16 -55 -47 22 -1 -40 -69 5 7 19 -76 
0 0 -13 -76 1 -45 -65 -65 23 -1 -47 -99 -4 -3 4 -78 
0 0 -18 -81 -30 -55 -73 -83 -6 6 -62 -101 -17 -17 -31 -108 
0 0 -11 -73 -27 -29 -67 -70 -8 -3 -71 -79 -8 -7 -16 -122 
0 0 -5 -66 -9 -24 -45 -39 5 -19 -53 -80 3 2 2 -109 
0 0 -12 -69 -3 -30 -29 -27 3 11 -32 -90 -5 3 2 -99 
0 0 -9 -72 -4 -27 -49 -49 -2 43 -50 -89 -13 1 -6 -102 
0 0 -11 -74 -18 -35 -72 -65 -13 6 -73 -87 -15 -17 -29 -102 
1 0 -7 -74 -21 -46 -54 -57 -11 -28 -59 -70 -14 -35 -38 -89 
1 0 -1 -73 -8 -43 -27 -58 9 -14 -48 -58 -12 -31 -22 -82 
1 0 0 -78 -11 -49 -23 -66 9 -15 -49 -72 -14 -26 -20 -78 
1 0 0 -81 -32 -64 -28 -60 -6 -35 -43 -76 -21 -36 -47 -81 
1 0 0 -72 -35 -61 -29 -66 -10 -40 -42 -70 -25 -32 -60 -86 
1 0 4 -62 -15 -40 -10 -71 0 -31 -28 -72 -24 -16 -44 -72 
1 0 6 -61 4 -32 9 -47 20 -10 -6 -53 -18 -8 -22 -48 
1 0 11 -55 2 -37 -10 -35 26 0 -17 -14 -7 -14 -22 -42 
1 0 6 -50 0 -19 -22 -34 20 -1 -30 1 -3 -1 -11 -31 
1 0 9 -43 18 8 12 -8 32 12 10 2 0 24 19 -12 
1 0 7 -40 12 6 28 12 36 13 35 12 7 16 6 -27 
1 0 13 -42 -5 -4 6 0 21 -9 8 10 5 -9 -24 -46 
1 0 9 -48 16 9 -3 -3 25 13 4 -5 5 -6 -6 -33 
1 0 11 -46 29 6 5 4 36 39 27 -5 7 11 20 -24 
1 0 12 -42 11 -12 2 -6 27 6 29 9 8 12 14 -37 
1 0 15 -45 -6 -12 -17 -15 4 -16 3 -5 -4 -1 1 -52 
0 0 3 -53 -11 -10 -34 -19 -16 6 -17 -41 -13 -10 -3 -66 
0 0 11 -43 -1 0 -18 -9 -2 20 -5 -21 4 5 3 -50 
0 0 13 -38 3 0 -2 -9 13 -9 6 16 10 20 -2 -32 
0 0 5 -53 -3 -21 -12 -27 -2 -18 -2 1 -11 8 -16 -40 
0 0 6 -58 6 -35 -14 -27 -1 5 6 -19 -20 -10 -6 -43 
0 0 15 -46 15 -22 5 -11 27 12 29 0 -1 -8 1 -22 
0 0 16 -43 5 -11 25 -17 34 -6 32 12 3 -3 -20 -9 
0 0 2 -64 -6 -32 16 -43 14 -25 19 -18 -25 -25 -41 -22 
0 0 -7 -73 -4 -63 -24 -56 0 -29 3 -48 -41 -48 -32 -49 
0 0 -12 -77 -5 -70 -44 -62 4 -28 -8 -57 -32 -39 -25 -62 
0 0 -6 -76 -7 -48 -17 -59 13 -25 -4 -49 -27 -20 -32 -49 
0 0 -8 -70 1 -30 0 -41 17 -21 9 -33 -19 -12 -24 -40 
0 0 -7 -71 -9 -55 -24 -45 9 -20 -1 -45 -13 -18 -28 -53 
0 0 -13 -92 -33 -86 -57 -75 -13 -24 -28 -79 -33 -35 -54 -73 
0 0 -11 -98 -38 -88 -69 -97 -27 -38 -35 -91 -48 -45 -52 -87 
0 0 -16 -92 -30 -81 -57 -94 -14 -36 -29 -86 -39 -37 -37 -91 
0 0 -10 -89 -31 -81 -48 -88 -1 -30 -27 -88 -35 -34 -47 -85 
0 0 -8 -88 -21 -70 -43 -72 9 -30 -18 -88 -29 -30 -51 -86 
0 0 -5 -80 5 -54 -29 -56 29 -24 -7 -73 -13 -27 -26 -82 
0 0 -15 -88 -3 -68 -39 -77 21 -26 -24 -75 -26 -31 -13 -79 
0 0 -16 -97 -31 -90 -58 -99 -12 -29 -37 -85 -54 -33 -22 -88 
0 0 -13 -85 -25 -90 -42 -77 -5 -15 -15 -77 -42 -29 -18 -87 
0 0 -12 -67 4 -57 -14 -48 17 0 0 -53 -8 -22 1 -64 
0 0 -8 -69 -4 -30 -11 -56 4 -6 -7 -43 -8 -20 1 -52 
0 0 -3 -75 -27 -43 -12 -65 -4 -29 -2 -41 -27 -25 -16 -48 
0 0 -1 -62 -14 -43 -3 -41 13 -34 6 -23 -15 -25 -12 -26 
0 0 -2 -53 2 -26 8 -24 21 -7 2 -6 3 -10 -3 -11 
0 0 9 -57 -5 -29 13 -38 10 6 3 -8 -6 -3 -4 -9 
0 0 14 -58 -9 -39 16 -41 10 -1 14 -7 -5 2 -2 5 
0 0 11 -44 -18 -34 13 -29 10 1 8 -1 -3 -7 -20 16 
0 0 -2 -48 -35 -28 -2 -39 -16 -7 -4 -9 -23 -19 -39 -1 
0 0 8 -43 -22 -5 3 -34 -17 -15 7 1 -19 5 -16 7 
0 0 17 -25 8 23 33 2 18 4 25 38 11 24 0 36 
0 0 21 -19 7 17 40 13 21 3 31 51 11 5 -21 36 
0 0 11 -32 -15 11 20 -1 -6 -10 31 36 -5 -8 -27 23 
0 0 21 -31 -7 13 24 2 1 20 34 38 3 4 -5 31 
0 0 24 -28 5 -2 33 0 18 35 34 42 4 11 8 28 
0 0 17 -37 -19 -11 11 -28 -6 -7 26 22 -9 6 -3 4 
0 0 5 -43 -25 -9 -3 -36 -13 -35 27 4 -9 1 -9 0 
0 0 5 -48 -7 -20 0 -26 2 -20 23 -10 -15 -5 2 3 
0 0 5 -59 -10 -36 -5 -37 -2 -1 11 -19 -25 4 0 -21 
0 0 6 -60 -19 -30 -5 -42 -8 -4 18 -8 -17 8 -23 -17 
0 0 19 -40 1 -3 21 -15 14 -9 36 18 4 1 -22 29 
0 0 29 -25 17 16 46 11 36 0 44 40 15 4 1 53 
0 0 23 -36 3 5 38 -2 18 2 41 35 6 9 2 33 
0 0 13 -48 -1 -6 23 -13 7 -1 44 17 -3 9 0 18 
0 0 20 -44 6 -1 23 -8 22 9 38 10 -1 3 5 15 
0 0 15 -47 1 -5 10 -26 18 10 16 -2 -2 -5 -4 2 
0 0 5 -48 -7 -20 -9 -42 6 -22 13 -12 -6 -6 6 -5 
0 0 -1 -49 6 -41 -2 -39 13 -35 27 -11 -1 5 24 -5 
0 0 11 -58 2 -46 1 -52 11 -12 20 -26 -20 3 10 -21 
0 0 1 -68 -28 -48 -26 -72 -3 -10 0 -49 -38 -21 -14 -55 
0 0 -5 -62 -33 -66 -31 -73 -10 -34 -7 -44 -23 -43 -19 -61 
0 0 6 -49 -3 -30 15 -49 11 -8 15 -10 0 -21 -4 -18 
0 0 23 -42 18 21 43 -22 39 37 53 8 6 15 9 10 
0 0 9 -53 -3 -18 16 -32 21 8 47 -19 -10 0 -4 -16 
0 0 3 -56 -20 -60 -7 -52 -14 -34 9 -33 -26 -26 -18 -28 
0 0 12 -46 -9 -32 -2 -53 -9 -11 11 -15 -28 -12 -8 -13 
0 0 27 -40 6 -7 8 -42 9 16 39 5 -15 13 11 -5 
0 0 29 -44 13 -10 11 -36 9 -14 38 12 -6 15 21 -1 
0 0 16 -46 7 -20 4 -40 9 -38 21 4 -19 6 16 2 
0 0 5 -51 -18 -38 -8 -68 -7 -11 4 -23 -36 -1 -12 -17 
0 0 5 -55 -33 -37 -11 -76 -24 3 -4 -26 -31 1 -18 -30 
0 0 15 -45 -9 -29 -1 -39 -7 -5 15 4 -6 11 15 -17 
0 0 14 -42 13 -31 6 -23 12 7 22 9 3 12 16 0 
0 0 11 -50 -10 -19 -1 -52 1 11 7 -10 -9 3 -30 -16 
0 0 0 -62 -31 -11 -12 -61 -9 -5 7 -24 -8 -2 -44 -44 
0 0 4 -56 -10 -13 6 -26 8 3 29 -15 10 5 -10 -28 
0 0 6 -52 2 -13 21 -12 15 10 28 -8 7 4 3 -4 
0 0 7 -57 -17 -20 6 -33 2 -13 16 -19 -14 -12 -12 -18 
0 0 1 -56 -12 -21 5 -30 10 -17 23 -14 -9 -4 -1 -27 
0 0 9 -50 4 -11 18 -25 10 -2 21 2 -2 6 23 -13 
0 0 15 -50 -1 0 19 -33 -5 -4 14 -1 -9 -1 24 -4 
0 0 21 -45 7 -1 25 -26 14 -10 34 1 2 11 13 11 
0 0 14 -41 15 -1 32 -15 30 -8 46 16 12 13 -1 19 
0 0 15 -43 -1 -5 28 -21 8 -5 36 17 -3 -20 -11 13 
0 0 20 -39 -6 -10 42 -14 2 -18 35 24 -5 -26 -18 25 
0 0 21 -28 6 0 61 10 29 -36 42 46 8 3 -10 44 
0 0 12 -41 4 0 40 -8 22 -21 26 33 1 4 -3 29 
0 0 13 -58 -5 -8 23 -32 -1 1 17 14 -7 -11 -19 12 
0 0 29 -39 1 8 50 -2 9 -4 38 45 9 -3 -21 33 
0 0 27 -19 9 39 59 20 20 -3 48 73 15 7 -2 54 
0 0 21 -28 5 32 37 -3 13 5 35 57 1 10 5 52 
0 0 25 -39 12 5 55 -2 28 -10 46 56 7 9 4 50 
0 0 26 -36 9 -3 60 10 31 -29 59 63 9 -5 1 46 
0 0 11 -40 -2 3 36 -2 9 -18 50 47 4 -2 -3 39 
0 0 20 -35 17 11 54 6 20 12 51 45 17 27 5 54 
0 0 16 -47 16 -8 50 -7 21 14 38 37 2 14 21 43 
0 0 4 -63 -19 -26 -5 -52 -15 -11 -2 -5 -28 -24 6 2 
0 0 5 -50 -16 -5 -4 -38 -10 -11 1 -4 -9 -8 -13 0 
0 0 19 -29 9 12 38 11 14 11 34 39 17 16 -8 26 
0 0 10 -43 -5 -9 21 -5 -6 -5 25 39 0 -2 -6 19 
0 0 15 -50 -16 -8 -1 -37 -12 -28 8 18 -12 -11 -17 9 
0 0 24 -31 16 27 28 -9 24 0 30 38 7 11 -1 27 
0 0 13 -38 10 14 22 -3 16 8 30 34 4 5 5 21 
0 0 1 -61 -21 -19 -9 -38 -15 -31 -4 -7 -20 -25 -24 -14 
0 0 16 -60 -7 -8 6 -37 2 -35 -1 -4 -16 -31 -26 -12 
0 0 16 -56 4 -2 24 -26 4 -13 13 8 -5 -26 -16 -2 
0 0 -10 -77 -36 -43 -5 -64 -35 -30 -12 -27 -31 -38 -47 -29 
0 0 -4 -76 -46 -64 -14 -90 -41 -35 -25 -39 -39 -29 -63 -29 
0 0 15 -47 -10 -23 12 -61 -15 3 -2 -6 -4 13 -21 6 
0 0 14 -41 -13 1 16 -37 -17 8 3 -5 6 9 -2 3 
0 0 6 -50 -30 -6 22 -33 -23 -7 2 -18 -5 -18 -24 -8 
0 0 10 -46 -18 -13 26 -32 -19 -2 2 1 -4 -7 -23 4 
0 0 6 -41 -7 -6 21 -21 -12 3 -4 18 -3 5 -11 9 
0 0 18 -26 1 24 41 8 5 1 12 35 1 -2 -15 31 
0 0 13 -27 -8 27 58 24 -3 -9 23 45 4 -14 -26 44 
0 0 7 -36 -19 7 56 26 -25 -21 7 53 -8 -13 -10 43 
0 0 20 -26 -10 28 83 60 -15 -13 6 91 -6 -1 4 78 
0 0 42 -8 13 69 147 128 9 5 37 155 15 11 3 133 
0 0 38 -5 38 74 189 177 29 -1 59 197 25 28 34 169 
0 0 31 -14 30 56 177 175 19 -22 51 196 13 24 41 182 
0 0 18 -35 -19 37 153 151 -29 -33 28 174 -11 -28 -26 153 
0 0 13 -43 -49 20 152 152 -60 -30 0 175 -18 -61 -72 135 
0 0 25 -24 -21 39 159 177 -40 -17 -2 214 -5 -17 -37 177 
0 0 36 -14 8 70 180 192 -15 -13 38 245 7 20 -9 203 
0 0 37 -19 -7 60 205 185 -28 -21 69 222 2 -17 -36 175 
0 0 34 -23 -17 35 197 163 -38 -29 59 184 -10 -40 -33 165 
0 0 43 -11 18 49 188 144 8 -31 70 201 5 0 20 191 
0 0 44 -5 39 71 184 125 33 -26 88 212 16 11 24 179 
0 0 30 -20 3 30 125 86 -14 -29 45 135 -17 -37 -33 115 
0 0 13 -37 -11 -8 76 53 -28 -26 16 72 -35 -48 -40 68 
0 0 22 -34 12 9 85 37 4 -14 34 73 -14 -12 0 58 
0 0 25 -32 11 18 74 13 -9 -7 31 54 -11 2 5 50 
0 0 18 -41 -5 -12 37 -12 -37 -20 8 22 -30 -18 -6 33 
0 0 5 -52 -4 -29 20 -12 -25 -34 -2 19 -31 -36 -5 11 
1 0 7 -57 -10 -31 5 -30 -24 -30 -7 -4 -30 -31 -8 -18 
0 0 0 -60 -30 -44 -9 -68 -45 -36 -17 -43 -40 -27 -7 -48 
0 0 -3 -59 -23 -44 1 -58 -45 -46 -28 -37 -39 -44 4 -47 
0 0 -2 -58 -4 -35 -4 -36 -29 -49 -39 -16 -31 -47 7 -27 
0 0 5 -58 -17 -33 -19 -43 -28 -49 -33 -18 -30 -31 -13 -31 
0 0 3 -62 -40 -25 -9 -43 -42 -37 -18 -28 -32 -34 -39 -53 
0 0 0 -58 -29 -12 9 -31 -34 -6 -15 -19 -25 -31 -34 -46 
0 0 -3 -54 -21 -39 -5 -48 -25 -4 -32 -18 -21 -23 -23 -41 
0 0 2 -60 -24 -57 -28 -63 -32 -19 -38 -33 -27 -21 -15 -49 
0 0 6 -68 -9 -37 -25 -62 -37 -14 -22 -39 -31 -18 -3 -56 
0 0 -6 -77 -4 -49 -31 -83 -45 -18 -32 -46 -36 -22 0 -72 
0 0 -4 -73 -9 -76 -52 -104 -47 -31 -54 -56 -41 -22 2 -75 
0 0 2 -63 -8 -61 -49 -99 -39 -18 -39 -49 -36 -4 16 -64 
0 0 10 -55 -4 -33 -17 -75 -32 -2 -9 -24 -22 5 20 -52 
0 0 8 -53 3 -31 1 -51 -24 -11 2 -7 -13 -6 7 -28 
0 0 13 -47 3 -30 -2 -37 -10 -14 2 -6 -6 -23 -6 -11 
0 0 9 -45 -3 -26 -3 -32 -12 -5 -6 -11 -7 -23 -4 -20 
0 0 10 -43 -8 -31 -9 -48 -31 -9 -13 -12 -15 -12 0 -28 
0 0 0 -44 -8 -23 -28 -62 -36 -26 -12 -8 -16 -15 -5 -40 
0 0 5 -45 -7 -4 -30 -42 -28 -25 -4 0 -7 -29 -6 -45 
0 0 13 -48 -3 7 -20 -21 -26 -5 -14 -2 1 -15 2 -24 
0 0 14 -45 3 4 -25 -27 -29 3 -33 -14 -1 2 0 -20 
0 0 2 -48 -3 -10 -23 -32 -35 7 -23 -15 2 1 9 -44 
0 0 -1 -62 -25 -30 -20 -44 -58 0 -14 -22 -1 -4 17 -63 
0 0 0 -70 -28 -35 -29 -61 -66 -10 -26 -27 -5 -9 6 -60 
0 0 3 -66 -3 -26 -19 -43 -39 4 -26 -13 2 -7 1 -48 
0 0 0 -64 -8 -29 -4 -27 -40 1 -25 -9 -5 -6 8 -49 
0 0 -7 -69 -33 -26 -9 -40 -56 -29 -30 -15 -15 -26 2 -48 
0 0 0 -63 -24 -13 0 -22 -42 -22 -17 0 -2 -36 -10 -31 
0 0 1 -60 -16 -17 4 1 -37 15 -14 2 10 -9 2 -29 
0 0 -4 -70 -37 -37 -31 -27 -63 -2 -43 -27 -11 -5 6 -60 
0 0 1 -67 -28 -35 -29 -43 -48 -32 -23 -16 -14 -30 -4 -50 
0 0 16 -48 13 -24 9 -23 -12 -13 13 15 4 -21 10 -13 
0 0 -5 -59 4 -35 -3 -28 -32 -5 -13 -6 -12 -7 31 -41 
0 0 -21 -74 -35 -44 -35 -51 -64 -23 -46 -36 -39 -28 9 -80 
0 0 -11 -62 -28 -32 -23 -49 -54 -15 -35 -28 -33 -32 -11 -62 
0 0 9 -49 3 -25 5 -33 -30 0 -16 -10 -8 -5 17 -36 
0 0 -1 -62 2 -43 -3 -33 -33 -17 -28 -17 -7 -8 32 -51 
0 0 -7 -69 -10 -47 -20 -51 -47 -15 -36 -35 -18 -17 17 -65 
0 0 -4 -65 4 -38 -13 -57 -28 6 -15 -39 -16 0 24 -49 
0 0 4 -64 2 -48 -12 -60 -23 -8 -11 -34 -18 -3 32 -45 
0 0 -3 -73 -32 -68 -45 -86 -60 -37 -39 -55 -46 -26 10 -74 
0 0 -3 -79 -34 -68 -62 -101 -67 -38 -45 -73 -59 -37 -8 -79 
0 0 3 -75 -9 -65 -36 -90 -37 -29 -29 -51 -37 -33 -7 -54 
0 0 3 -77 -14 -78 -25 -90 -44 -32 -27 -42 -28 -19 2 -52 
0 0 -1 -71 -17 -69 -31 -83 -54 -27 -28 -52 -32 -7 8 -57 
0 0 -6 -65 7 -49 -26 -69 -25 -10 -23 -35 -27 -10 9 -40 
0 0 0 -63 11 -58 -14 -82 -15 4 -14 -20 -26 -16 11 -27 
0 0 5 -60 1 -70 -12 -89 -26 -2 -5 -25 -34 -13 17 -21 
0 0 13 -51 9 -61 -15 -72 -22 -22 -14 -24 -30 -7 25 -10 
0 0 4 -58 13 -62 -16 -77 -15 -20 -30 -27 -20 -9 26 -15 
0 0 -4 -74 0 -86 -24 -102 -25 -22 -29 -53 -36 -34 6 -38 
0 0 -13 -87 -15 -95 -45 -105 -47 -54 -37 -72 -59 -58 -22 -69 
0 0 -9 -85 -18 -81 -51 -87 -52 -55 -54 -65 -57 -52 -21 -78 
0 0 -8 -73 1 -54 -29 -65 -26 -23 -44 -49 -28 -23 6 -56 
0 0 -2 -70 3 -55 -29 -64 -22 -28 -30 -51 -15 -12 9 -53 
0 0 -8 -81 -15 -74 -32 -76 -34 -30 -30 -55 -19 -21 -5 -57 
0 0 2 -65 8 -36 10 -47 -11 3 -8 -19 7 -3 13 -15 
0 0 18 -36 41 17 34 -3 15 19 21 28 28 30 46 20 
0 0 20 -37 12 7 6 -3 -6 -4 10 24 6 13 19 -1 
1 0 2 -58 -15 -17 -5 -27 -26 -17 -10 -3 -19 -25 -20 -21 
0 0 9 -40 29 6 34 -6 13 15 7 24 6 -10 15 12 
0 0 22 -16 46 12 42 16 30 25 11 53 28 7 36 27 
0 0 17 -33 5 -7 15 4 -14 1 -3 42 6 1 2 4 
0 0 15 -43 -2 3 11 5 -35 3 5 37 -5 15 5 3 
0 0 19 -28 25 31 30 28 -4 16 17 58 19 21 32 28 
0 0 27 -8 35 55 53 44 27 9 26 86 41 12 31 48 
0 0 21 -14 28 60 56 45 24 20 29 88 32 15 21 44 
0 0 13 -31 6 41 32 33 -2 40 10 65 8 19 10 18 
0 0 4 -40 -12 10 14 9 -21 29 -8 43 -3 12 -1 0 
0 0 20 -22 11 9 33 16 -7 15 3 54 18 17 17 20 
0 0 19 -17 23 24 39 29 4 6 7 61 24 20 25 27 
0 0 14 -31 5 25 16 7 -13 16 -5 47 -1 23 6 2 
0 0 9 -36 10 21 18 2 -9 34 0 46 4 32 16 1 
0 0 10 -35 21 7 27 8 1 11 2 39 17 12 37 7 
0 0 9 -39 14 -3 27 0 3 -7 5 33 2 -1 26 -2 
0 0 16 -36 10 9 31 2 3 12 9 37 -7 16 6 -3 
0 0 6 -46 6 -3 15 -10 -8 12 -17 12 -7 3 -4 -17 
0 0 2 -65 1 -41 -13 -42 -15 -5 -36 -30 -14 -26 -4 -47 
0 0 14 -50 27 -18 10 -21 14 15 1 -4 9 14 21 -30 
0 0 18 -30 35 16 39 0 21 36 23 46 30 41 30 -3 
0 0 0 -58 -2 -28 9 -44 -26 -3 -18 14 -6 -12 -2 -33 
0 0 -9 -83 -20 -63 -23 -72 -50 -41 -43 -36 -37 -41 -15 -60 
0 0 3 -63 -1 -37 -17 -56 -19 -14 -30 -23 -29 -7 6 -48 
0 0 6 -54 12 -26 -12 -53 3 9 -26 -5 -14 16 14 -45 
0 0 -6 -75 -7 -59 -39 -78 -21 -21 -42 -44 -20 -8 2 -79 
0 0 -13 -76 -11 -73 -44 -82 -38 -31 -51 -67 -32 -22 -1 -87 
0 0 10 -48 12 -34 0 -36 -13 7 -29 -16 -9 4 6 -38 
0 0 12 -42 16 7 21 -3 0 32 -18 27 20 40 32 -15 
0 0 1 -48 2 4 -4 -17 -14 30 -34 9 11 43 42 -29 
0 0 -3 -51 12 -2 4 -18 -3 27 -20 4 4 20 15 -27 
0 0 12 -39 28 20 35 14 21 30 11 44 30 15 3 -7 
0 0 17 -21 28 38 37 26 26 38 10 65 37 37 35 9 
0 0 19 -18 32 31 36 17 28 29 4 53 14 38 40 24 
0 0 6 -43 29 2 35 -1 26 20 2 29 -1 5 -1 4 
0 0 7 -49 26 4 31 2 21 33 -2 34 11 7 -2 -13 
0 0 10 -36 24 34 37 19 20 29 0 49 20 32 24 3 
0 0 4 -47 10 10 23 -5 6 8 -12 27 3 9 21 -10 
0 0 -3 -61 9 -35 0 -37 -1 -3 -31 -10 -16 -15 9 -36 
0 0 -4 -62 13 -32 -1 -36 -6 -13 -34 -17 -22 -3 6 -33 
0 0 -9 -67 -1 -17 7 -28 -17 -17 -25 -3 -22 4 11 -26 
0 0 -3 -67 -7 -9 21 -9 -4 7 -8 17 -8 1 7 -11 
0 0 13 -46 6 8 30 18 5 24 -2 42 16 8 -1 12 
0 0 12 -30 23 29 31 33 7 32 0 63 27 34 22 22 
0 0 16 -25 37 48 47 43 38 48 27 73 34 54 46 35 
0 0 14 -28 28 49 59 46 52 31 37 62 31 31 16 44 
0 0 10 -35 16 30 50 30 17 -3 14 46 8 -8 -11 25 
0 0 2 -48 23 17 46 10 1 9 10 45 -5 -4 9 17 
0 0 8 -51 15 12 52 3 15 32 10 37 -1 13 12 34 
0 0 9 -47 10 15 83 31 16 28 -7 49 0 14 -1 59 
0 0 18 -44 26 23 138 70 8 18 8 96 -3 8 7 89 
0 0 26 -35 34 39 181 103 6 25 45 144 19 18 26 131 
0 0 41 -6 32 58 217 151 3 41 58 190 32 54 38 188 
0 0 40 5 37 63 252 184 -3 31 54 227 9 44 27 215 
0 0 32 -3 28 59 255 189 -3 -2 59 243 -6 -12 1 210 
0 0 28 -6 -2 86 252 224 -9 0 68 258 4 2 -15 219 
0 0 37 10 4 128 267 267 -14 31 58 293 21 41 -5 261 
0 0 41 23 27 127 279 274 -3 26 62 320 26 13 -10 282 
0 0 33 9 11 95 272 270 -20 -18 83 301 10 -18 -30 240 
0 0 25 -12 -3 80 251 247 -45 -43 63 252 -8 3 -14 199 
0 0 25 -16 16 71 246 202 -11 -25 48 229 1 4 0 201 
0 0 24 -15 8 40 236 159 -1 -6 61 214 -5 -30 -33 183 
1 0 9 -29 -9 17 198 120 -32 -7 41 159 -28 -36 -43 130 
1 0 17 -27 17 25 172 89 -18 5 4 118 -12 -5 2 116 
1 0 24 -20 26 32 153 68 -7 18 14 129 2 5 11 121 
1 0 20 -25 8 26 139 55 -26 -5 41 132 -11 -7 -13 99 
1 0 21 -19 26 36 172 64 -3 -4 56 117 7 17 15 103 
1 0 40 -3 49 46 195 71 7 24 70 111 29 36 36 118 
1 0 29 -24 23 23 142 33 -39 4 41 88 -10 8 7 85 
0 0 20 -43 -4 4 104 2 -41 -25 1 59 -41 2 4 61 
0 0 23 -26 17 19 125 18 2 -6 16 63 -9 30 25 75 
0 0 33 -12 39 40 130 28 11 23 52 78 17 41 12 74 
0 0 21 -32 23 20 97 2 -12 30 32 47 4 23 -8 44 
0 0 5 -44 3 -9 66 -20 -25 32 -6 9 -7 5 -1 22 
0 0 9 -37 20 8 64 -18 -9 25 3 9 4 10 12 15 
0 0 18 -45 20 23 54 -25 -10 12 1 0 5 11 8 2 
0 0 9 -48 -1 -1 32 -39 -33 13 -29 -24 -5 5 -4 -15 
0 0 0 -33 16 -9 46 -37 -15 30 -29 -13 7 24 19 -10 
0 0 9 -33 25 0 54 -43 -3 38 -13 -2 13 46 44 -2 
0 0 14 -49 0 -11 36 -48 -33 36 -16 -9 3 38 4 -12 
0 0 16 -31 4 7 55 -14 -25 43 -5 6 17 27 -27 -7 
0 0 4 -21 12 32 68 -4 -5 37 -1 10 29 18 0 -8 
0 0 4 -43 -16 -4 23 -53 -37 18 -35 -30 0 12 9 -37 
0 0 13 -46 -3 -15 18 -61 -42 30 -32 -34 -3 32 -8 -34 
0 0 19 -33 30 19 57 -27 -6 41 7 -7 24 40 -6 1 
0 0 6 -47 11 3 49 -29 -6 12 8 -27 8 18 2 -10 
0 0 8 -48 0 -22 38 -40 -18 -10 -9 -54 -10 -1 -3 -30 
0 0 7 -41 17 -4 55 -34 -4 -2 -7 -29 5 2 -8 -27 
0 0 15 -43 25 1 60 -26 17 3 1 8 1 8 2 -14 
0 0 22 -30 40 2 81 1 40 19 24 23 5 17 22 18 
0 0 32 -12 63 46 125 30 58 43 61 35 34 37 39 42 
0 0 29 -29 61 70 123 29 57 53 62 42 40 49 41 26 
0 0 20 -41 53 43 94 26 49 53 36 38 31 35 39 11 
0 0 13 -30 51 33 106 30 57 39 34 35 44 25 39 23 
0 0 11 -35 39 46 106 19 46 35 33 31 49 41 37 21 
0 0 10 -42 35 33 75 -7 13 51 -3 17 28 53 28 2 
0 0 21 -26 61 22 94 -3 48 65 0 23 33 64 43 12 
0 0 32 -19 74 41 129 21 94 59 51 43 47 67 63 29 
0 0 21 -40 49 46 109 16 58 47 60 32 33 48 49 16 
0 0 17 -46 39 31 84 -8 87 42 30 9 20 36 39 -3 
0 0 19 -42 53 25 91 -10 199 42 14 6 29 45 57 -3 
0 0 24 -39 52 25 93 3 205 45 20 19 30 40 56 12 
0 0 27 -28 54 32 94 12 149 46 49 36 31 38 55 31 
0 0 35 -14 63 36 100 9 160 41 63 39 36 50 67 31 
0 0 22 -23 54 26 94 -3 157 35 45 20 26 49 54 17 
0 0 21 -24 54 28 96 7 140 39 55 26 38 51 41 33 
0 0 23 -12 73 41 102 24 154 53 66 48 59 61 51 51 
0 0 26 -8 60 34 95 10 143 68 45 45 42 55 42 36 
0 0 22 -18 42 29 93 -5 119 64 39 35 25 53 29 25 
0 0 25 -29 47 34 87 4 127 45 47 28 34 61 34 22 
0 0 31 -27 60 39 82 17 142 67 50 27 41 65 32 16 
0 0 34 -21 71 32 92 18 142 94 54 28 40 69 32 28 
0 0 20 -36 53 3 83 -2 114 68 45 8 31 57 36 21 
0 0 13 -54 26 -1 59 -13 98 47 25 -11 23 37 30 -9 
0 0 27 -38 40 35 69 -1 124 62 27 5 36 51 45 -7 
0 0 26 -25 73 42 90 8 146 62 47 25 51 71 75 15 
0 0 19 -39 64 8 76 7 136 55 40 11 47 56 61 6 
0 0 11 -59 27 3 47 -4 129 53 10 -21 26 35 35 -21 
0 0 10 -63 11 4 29 -32 118 29 -12 -36 0 23 28 -35 
0 0 6 -57 18 -22 22 -43 96 20 -10 -24 -4 14 10 -36 
0 0 12 -47 32 -17 32 -26 108 33 2 -11 9 17 8 -25 
0 0 5 -55 32 -7 26 -36 129 10 3 -32 2 16 28 -37 
0 0 2 -64 23 -33 -2 -56 119 -18 -4 -46 -11 -4 14 -53 
0 0 11 -56 39 -30 10 -38 120 9 4 -23 10 -4 3 -30 
0 0 23 -44 63 9 45 -17 133 44 25 -3 29 24 29 -2 
0 0 10 -54 46 4 35 -35 119 31 14 -22 12 28 28 -17 
0 0 4 -67 3 -35 0 -63 90 0 -22 -53 -9 6 -4 -46 
0 0 3 -68 -6 -39 -4 -67 85 -9 -30 -57 -5 -5 -5 -55 
0 0 3 -56 15 -13 13 -39 98 23 -3 -38 12 21 14 -46 
0 0 4 -45 33 10 31 -1 123 53 19 -20 33 48 23 -28 
0 0 9 -47 38 3 39 -1 128 27 14 -27 39 27 18 -31 
0 0 -1 -55 20 -20 20 -29 98 -1 -1 -50 10 -6 -5 -63 
0 0 -2 -48 20 2 27 -12 107 26 18 -41 12 16 -4 -49 
0 0 16 -33 44 38 57 30 152 41 38 -8 48 41 22 -1 
0 0 13 -39 29 25 40 14 133 17 9 -8 32 11 17 -9 
0 0 2 -47 -9 -3 7 -32 82 1 -20 -29 -12 -12 -14 -36 
0 0 -1 -43 0 0 13 -34 88 12 -5 -16 0 12 -7 -25 
0 0 11 -34 23 4 27 -8 105 22 7 9 21 33 31 -21 
0 0 9 -42 9 -3 22 0 84 18 1 0 5 12 20 -32 
0 0 9 -43 9 11 24 -4 85 31 0 -15 7 12 -5 -27 
0 0 4 -36 29 38 37 7 116 43 9 1 33 56 17 -16 
0 0 5 -38 17 31 42 14 113 24 7 3 37 42 22 -13 
0 0 -4 -55 -11 -6 17 -12 90 15 -23 -32 16 -10 -14 -35 
0 0 0 -53 -3 -14 -5 -28 84 35 -32 -42 10 -4 -18 -52 
0 0 5 -41 21 3 15 -16 94 38 4 -21 22 25 4 -34 
0 0 6 -39 15 2 19 -15 102 29 18 -19 17 26 7 -24 
0 0 -1 -44 1 -2 -7 -21 86 30 -6 -32 5 25 9 -52 
0 0 1 -51 0 1 -10 -21 62 7 -15 -39 5 11 -4 -69 
0 0 -1 -58 0 -21 3 -34 75 0 -12 -48 6 -6 -20 -58 
0 0 -6 -55 -2 -32 0 -37 99 28 -6 -49 -2 3 -8 -55 
0 0 -7 -50 2 -17 -3 -22 89 24 2 -36 -1 6 2 -60 
0 0 -7 -54 7 -20 6 -29 87 8 -12 -40 12 6 1 -56 
0 0 1 -50 1 -26 6 -37 95 24 -20 -43 9 11 -2 -40 
0 0 -1 -49 -18 -11 -3 -17 71 20 -7 -32 -5 -4 -21 -32 
0 0 3 -41 -4 8 12 2 77 8 5 -7 9 9 -17 -19 
0 0 6 -41 24 4 30 -3 108 37 7 3 18 41 11 -8 
0 0 1 -60 -6 -22 10 -25 84 22 -4 -28 -13 -1 -25 -33 
0 0 -10 -71 -43 -36 -12 -32 61 -38 -21 -47 -23 -50 -76 -51 
0 0 4 -49 -14 -27 8 -27 93 -32 -19 -27 0 -29 -51 -27 
0 0 9 -44 12 -23 31 -27 97 10 6 -25 -4 -12 -17 -19 
0 0 2 -64 -7 -35 20 -36 66 1 14 -57 -34 -29 -24 -45 
0 0 -4 -68 -5 -35 4 -39 78 -17 -5 -56 -35 -11 -4 -51 
0 0 1 -56 5 -33 -5 -40 87 -17 -25 -29 -14 6 11 -42 
0 0 -3 -61 -14 -34 -11 -45 54 -14 -26 -30 -7 -11 -28 -48 
0 0 4 -59 -17 -13 0 -31 52 9 -11 -32 -12 -4 -44 -35 
0 0 8 -43 4 2 22 -11 92 26 1 -13 -2 16 -9 -10 
0 0 8 -40 8 -11 21 -18 108 15 7 -10 6 6 -4 -13 
0 0 4 -54 -8 -22 -2 -39 79 -10 4 -34 -4 -7 -37 -34 
0 0 6 -49 0 -17 1 -32 72 -12 7 -36 -1 -2 -37 -26 
0 0 10 -38 7 -23 14 -30 83 -5 8 -26 -4 -3 -23 -20 
0 0 5 -47 -11 -33 1 -51 75 -19 0 -42 -22 -7 -21 -35 
0 0 3 -54 -19 -36 -21 -68 53 -25 -9 -62 -30 -3 -23 -44 
0 0 0 -53 -9 -40 -30 -73 50 -15 -13 -60 -33 -9 -26 -46 
0 0 6 -51 0 -37 -23 -60 67 -21 -5 -45 -28 -12 -23 -39 
0 0 3 -56 -2 -27 -20 -39 82 -37 -2 -48 -12 -6 -24 -32 
0 0 -1 -58 -19 -31 -28 -52 66 -20 -21 -61 -16 -5 -35 -40 
0 0 -10 -62 -32 -36 -31 -73 38 -2 -40 -59 -29 0 -20 -52 
0 0 1 -54 -15 -28 -30 -46 42 -22 -36 -43 -20 0 6 -46 
0 0 0 -50 -7 -26 -35 -35 64 -34 -25 -43 -17 -18 -17 -45 
0 0 -6 -61 -33 -48 -38 -64 63 -33 -29 -65 -34 -41 -46 -62 
0 0 -9 -74 -42 -64 -42 -68 37 -37 -49 -79 -41 -44 -33 -71 
0 0 -5 -71 -33 -55 -51 -55 22 -38 -64 -69 -39 -40 -34 -65 
0 0 -12 -62 -39 -65 -41 -44 40 -39 -47 -55 -39 -46 -42 -53 
0 0 -5 -54 -41 -58 3 9 61 -27 -29 -25 -26 -40 -25 -17 
0 0 7 -39 -19 6 53 74 71 10 -26 37 -1 -7 -24 41 
0 0 17 -20 1 46 93 114 80 33 10 96 10 22 -37 91 
0 0 21 -13 0 30 119 147 90 8 51 131 2 -2 -38 109 
0 0 23 -13 2 33 138 166 92 -21 47 168 -1 -23 -28 123 
0 0 29 -6 17 56 137 171 99 -16 25 187 11 3 -14 155 
0 0 24 -11 13 54 108 176 85 6 20 162 15 21 1 158 
0 0 20 -18 -7 47 106 159 56 19 37 141 3 9 5 125 
0 0 18 -15 -4 43 141 137 64 8 61 140 -3 2 -10 107 
0 0 25 -13 0 28 133 121 77 -11 50 125 -1 1 -20 107 
0 0 26 -17 0 33 93 95 77 8 36 109 5 3 -6 98 
0 0 34 -13 7 36 83 67 77 13 37 98 -3 2 2 80 
0 0 26 -21 -2 5 63 39 60 -23 8 61 -19 -8 -22 63 
0 0 18 -29 -19 -19 14 -2 37 -34 -9 17 -32 -14 -33 36 
0 0 15 -30 -17 -14 5 -15 51 -9 19 10 -29 -7 -25 12 
0 0 20 -37 -10 -21 16 -10 68 -3 21 10 -14 -9 -27 5 
0 0 8 -48 -9 -30 -2 -31 56 -10 -4 -7 -9 -5 -23 -8 
0 0 4 -46 0 -19 -16 -36 63 -5 -3 -9 -8 3 -14 -23 
0 0 -1 -52 -8 -32 -28 -36 70 -18 -17 -28 -17 -12 -21 -39 
0 0 -7 -69 -31 -66 -54 -74 32 -41 -55 -68 -31 -35 -34 -57 
0 0 -10 -76 -37 -75 -72 -108 12 -45 -57 -87 -36 -42 -38 -75 
0 0 -5 -72 -24 -65 -64 -93 57 -29 -37 -75 -31 -35 -34 -77 
0 0 -7 -72 -17 -63 -51 -78 90 -17 -25 -77 -25 -33 -25 -73 
0 0 -18 -76 -26 -65 -48 -93 68 -28 -20 -93 -28 -43 -27 -82 
0 0 -18 -76 -33 -59 -50 -91 57 -26 -28 -91 -28 -40 -39 -86 
0 0 -9 -78 -24 -52 -47 -69 69 -11 -34 -77 -26 -21 -27 -78 
0 0 2 -66 -20 -47 -33 -57 63 -7 -15 -72 -21 -17 -12 -53 
0 0 -1 -57 -29 -45 -38 -66 51 -6 -9 -76 -21 -16 -22 -50 
0 0 4 -57 -21 -37 -47 -72 66 1 -20 -66 -14 5 -24 -67 
0 0 5 -56 10 -15 -31 -50 95 8 -6 -40 1 13 0 -60 
0 0 2 -54 7 -15 -39 -51 97 7 -4 -44 -11 17 12 -55 
0 0 -13 -64 -33 -55 -73 -90 68 4 -45 -74 -33 25 -9 -75 
0 0 -6 -59 -35 -65 -64 -88 65 0 -53 -72 -27 3 -28 -65 
0 0 8 -48 0 -23 -20 -36 91 -2 -3 -38 -10 -11 -15 -33 
0 0 13 -57 -7 -28 -26 -38 75 -22 11 -57 -23 -6 2 -43 
0 0 -4 -63 -35 -60 -58 -84 48 -47 -28 -94 -42 -19 -7 -68 
0 0 -5 -54 -26 -44 -52 -80 69 -43 -31 -71 -33 -23 -20 -57 
0 0 -1 -60 -19 -35 -50 -71 80 -31 -13 -53 -24 1 -18 -56 
0 0 -2 -65 -24 -47 -66 -84 73 -15 -23 -67 -30 8 -15 -62 
0 0 4 -49 -9 -30 -54 -76 80 12 -27 -55 -28 11 -5 -49 
0 0 12 -37 7 -8 -28 -54 86 28 6 -30 -14 34 8 -25 
0 0 3 -47 -2 -37 -42 -62 76 14 8 -49 -16 31 3 -35 
0 0 2 -54 -6 -58 -65 -85 72 0 -24 -77 -26 8 -5 -55 
0 0 18 -46 1 -38 -57 -88 79 0 -22 -73 -14 6 -1 -44 
0 0 8 -44 -5 -35 -53 -86 79 6 -5 -60 -2 27 1 -45 
0 0 -5 -45 -15 -50 -64 -80 68 3 -9 -54 -21 24 -5 -62 
0 0 -1 -51 -8 -46 -64 -62 60 -21 -19 -52 -33 -4 -8 -55 
0 0 19 -48 3 -22 -57 -55 69 -24 -21 -43 -8 -5 -4 -33 
0 0 7 -52 -4 -29 -62 -64 68 1 -32 -44 5 11 -1 -48 
0 0 -1 -55 -9 -58 -67 -67 61 7 -34 -56 -9 15 -1 -66 
0 0 -1 -59 0 -50 -60 -58 69 -4 -18 -64 -3 15 8 -58 
0 0 7 -64 1 -29 -59 -66 69 6 -14 -63 4 15 18 -54 
0 0 3 -62 -2 -30 -51 -68 71 31 -14 -48 -3 20 17 -55 
0 0 6 -50 8 -27 -33 -42 90 40 -3 -38 -1 24 9 -41 
0 0 5 -53 7 -1 -35 -24 98 28 -2 -56 11 6 2 -41 
0 0 -3 -74 -19 -23 -59 -48 72 16 -17 -81 5 -4 -7 -72 
0 0 -14 -87 -29 -65 -68 -75 53 18 -21 -97 -8 21 -4 -93 
0 0 -5 -76 0 -37 -49 -55 72 20 -7 -91 6 33 15 -71 
0 0 6 -66 5 -18 -51 -41 76 1 -11 -77 11 -1 1 -58 
0 0 -6 -76 -30 -62 -88 -74 42 -27 -37 -91 -23 -46 -33 -93 
0 0 -15 -77 -32 -68 -91 -88 35 -27 -35 -99 -33 -34 -26 -98 
0 0 -4 -62 0 -26 -52 -59 64 -2 -6 -66 0 5 -10 -57 
0 0 0 -59 -1 -26 -52 -50 66 1 -15 -56 5 -3 -31 -53 
0 0 -12 -69 -13 -42 -70 -64 56 -4 -36 -76 -16 -28 -39 -73 
0 0 0 -59 -2 -29 -43 -46 79 15 -15 -60 -5 -6 -13 -51 
0 0 4 -48 8 -29 -21 -29 92 11 13 -36 8 10 -7 -32 
0 0 1 -51 3 -20 -38 -39 84 -19 3 -40 -2 -10 -22 -38 
0 0 0 -57 4 2 -37 -31 88 -8 -1 -38 5 -4 -24 -34 
0 0 3 -58 5 -12 -24 -21 83 3 6 -38 2 -1 -24 -38 
0 0 -12 -66 -3 -42 -42 -42 58 -21 -1 -64 -31 -29 -35 -61 
0 0 -5 -72 -6 -30 -55 -52 49 -33 -9 -82 -29 -44 -27 -66 
0 0 3 -64 6 -19 -32 -38 74 -21 -1 -68 8 -26 -8 -51 
0 0 3 -61 2 -56 -31 -59 73 -2 2 -62 -7 -11 -21 -46 
0 0 -7 -77 -16 -72 -63 -84 46 -6 -12 -77 -46 -20 -32 -53 
0 0 1 -71 -7 -32 -50 -45 64 -40 -5 -62 -16 -25 -23 -43 
0 0 5 -57 -5 -14 -10 -20 86 -38 12 -37 11 -19 -32 -30 
0 0 -2 -67 -19 -36 -13 -48 65 9 10 -49 -16 -5 -34 -41 
0 0 -12 -79 -21 -42 -36 -57 56 13 -2 -74 -30 -11 -21 -53 
0 0 -14 -74 -17 -29 -30 -30 77 -8 3 -72 -15 -23 -23 -45 
0 0 -6 -67 -14 -27 -4 -14 81 7 16 -44 -5 -17 -34 -39 
0 0 -10 -71 -9 -29 2 -20 73 5 14 -36 1 -19 -38 -40 
0 0 -16 -79 -23 -40 -19 -36 69 -32 -3 -68 -5 -34 -45 -49 
0 0 -18 -87 -37 -51 -38 -41 55 -42 -11 -82 -22 -42 -40 -62 
0 0 -2 -75 -19 -42 -30 -30 53 -47 -3 -58 -13 -41 -26 -58 
0 0 -5 -71 -8 -28 -17 -28 61 -54 -3 -55 0 -45 -27 -54 
0 0 -5 -72 -7 -31 -12 -24 67 -25 -2 -65 -8 -28 -29 -47 
0 0 -2 -62 7 -39 -3 -9 81 8 12 -48 -5 2 -23 -26 
0 0 2 -59 5 -32 -5 -19 78 -3 7 -39 2 -14 -26 -27 
0 0 -3 -70 -3 -14 -8 -25 69 -10 -3 -42 1 -19 -14 -39 
0 0 1 -69 5 -10 -10 -9 82 12 11 -35 2 18 9 -37 
0 0 -4 -70 8 -17 -23 -14 90 8 13 -40 0 20 -4 -47 
0 0 -11 -80 -15 -34 -52 -49 60 -29 -17 -67 -16 -29 -33 -64 
0 0 -19 -83 -29 -59 -72 -72 35 -38 -30 -83 -26 -44 -27 -65 
0 0 -9 -76 -5 -60 -47 -57 55 -16 -3 -66 -18 -13 -8 -46 
0 0 -1 -78 5 -51 -30 -43 54 -24 9 -64 -23 -11 -20 -44 
0 0 -7 -81 -10 -53 -53 -58 35 -40 -17 -83 -29 -32 -39 -64 
0 0 -7 -72 2 -36 -51 -58 63 -21 -22 -70 -10 -10 -26 -62 
0 0 -1 -67 22 -25 -27 -41 80 -6 4 -52 -6 21 5 -47 
0 0 -6 -78 0 -55 -51 -59 36 -13 -3 -80 -38 -8 -3 -63 
0 0 -15 -87 -20 -66 -63 -76 10 -18 -22 -94 -47 -38 -31 -77 
0 0 7 -59 10 -22 -5 -42 58 -11 12 -49 -7 -2 -11 -35 
0 0 13 -40 31 2 8 -17 87 0 32 -21 9 30 15 -8 
0 0 -5 -63 -16 -45 -59 -51 27 -14 -30 -59 -25 -16 -25 -52 
0 0 -21 -80 -46 -75 -85 -80 -22 -41 -64 -85 -44 -36 -46 -84 
0 0 -5 -53 -4 -31 -41 -54 19 -22 -10 -49 -22 16 -6 -43 
0 0 5 -37 28 9 -6 -16 78 5 37 -6 2 22 13 0 
0 0 11 -49 12 -13 -2 -19 73 -10 33 -19 1 -23 -7 -8 
0 0 3 -59 5 -37 -15 -37 46 -18 10 -44 -17 -15 -3 -20 
0 0 0 -55 6 -27 -24 -37 40 -3 2 -36 -23 13 6 -13 
0 0 3 -52 0 -17 -10 -25 55 -3 14 -27 -3 -1 -17 -11 
0 0 8 -60 6 -32 -5 -23 61 -23 16 -42 3 -18 -32 -11 
0 0 -5 -76 1 -56 -34 -41 32 -29 -11 -52 -24 -19 -24 -31 
0 0 -3 -73 -7 -41 -39 -43 25 6 -11 -37 -22 4 -9 -38 
0 0 13 -54 14 6 -8 -22 61 34 20 -21 10 38 14 -6 
0 0 -1 -60 14 -1 -28 -17 54 13 -1 -39 1 9 9 -5 
0 0 -20 -77 -11 -46 -73 -43 20 -13 -42 -67 -33 -38 -30 -44 
0 0 -11 -73 -12 -51 -54 -59 27 -14 -29 -63 -27 -31 -42 -40 
0 0 4 -64 1 -32 -29 -45 39 -16 -15 -50 -14 -16 -26 -9 
0 0 -6 -71 -3 -32 -47 -34 26 -26 -26 -57 -20 -23 -28 -20 
0 0 -8 -72 -8 -40 -56 -44 14 -33 -16 -62 -17 -23 -39 -41 
0 0 -10 -73 -7 -37 -45 -52 22 -36 -5 -63 -14 -21 -29 -40 
0 0 -12 -74 -4 -31 -46 -42 39 -26 -14 -63 -20 -28 -12 -35 
0 0 -9 -66 5 -18 -35 -26 56 0 -2 -51 -9 -16 1 -25 
0 0 4 -52 8 -9 -19 -22 51 7 12 -34 5 2 3 -17 
0 0 -11 -69 -1 -20 -37 -27 26 -5 -6 -45 -5 -7 -6 -32 
0 0 -11 -83 -1 -34 -46 -30 31 5 -6 -58 -8 -15 -13 -39 
0 0 -1 -66 16 -30 -17 -32 61 22 16 -47 3 22 -1 -20 
0 0 2 -53 25 -14 6 -23 68 8 10 -26 3 42 18 -3 
0 0 -4 -63 17 -5 2 -1 55 -4 5 -16 1 -3 3 3 
0 0 5 -59 7 3 -3 8 62 5 31 -15 4 -31 -27 12 
0 0 5 -47 1 2 2 -3 61 1 37 -15 2 -11 -38 11 
0 0 4 -46 -1 -3 -7 -2 35 -16 8 -6 -1 -6 -37 1 
0 0 10 -41 4 14 6 28 43 -9 9 19 6 -5 -25 21 
0 0 8 -36 12 33 55 73 75 4 40 52 11 -1 -7 60 
0 0 7 -35 6 27 73 102 64 -2 43 71 9 -1 -4 74 
0 0 8 -38 -2 20 55 111 34 -7 24 80 6 9 -3 77 
0 0 14 -32 14 43 82 153 43 -8 30 116 4 -4 2 117 
0 0 22 -20 32 61 151 203 56 -17 66 166 2 -22 -3 166 
0 0 30 -10 14 64 167 200 38 -31 71 188 0 -6 -17 185 
0 0 13 -18 -7 62 135 183 20 -32 38 190 -8 -5 -24 190 
0 0 8 -29 -5 37 124 194 6 -37 24 176 -17 -33 -30 174 
0 0 16 -25 1 27 122 205 2 -38 36 168 0 -14 -28 164 
0 0 26 -15 -5 53 111 197 15 -16 44 183 21 19 -20 175 
0 0 15 -16 -3 63 114 177 27 7 43 187 15 9 -2 155 
0 0 11 -19 6 48 121 146 27 4 58 164 -2 -4 7 121 
0 0 6 -33 -3 35 102 118 29 -13 59 130 -7 -9 -26 104 
0 0 3 -50 -23 7 62 83 23 -19 5 76 -16 -15 -61 78 
0 0 -9 -60 -47 -31 29 31 -14 -35 -35 22 -36 -32 -63 46 
0 0 -7 -61 -51 -41 13 -7 -35 -58 -6 13 -46 -51 -54 37 
0 0 3 -62 -42 -33 7 -5 -21 -64 3 14 -42 -50 -50 25 
0 0 1 -60 -37 -24 -4 4 -15 -69 -29 9 -31 -47 -51 20 
0 0 -10 -62 -49 -31 -23 -19 -30 -78 -26 1 -36 -59 -60 20 
0 0 -13 -73 -58 -60 -47 -57 -38 -59 -20 -33 -57 -57 -64 -12 
0 0 -6 -73 -48 -68 -59 -68 -31 -29 -37 -54 -57 -38 -49 -34 
0 0 -9 -71 -41 -49 -53 -55 -30 -37 -41 -49 -42 -34 -31 -26 
0 0 -12 -75 -44 -64 -68 -76 -41 -66 -48 -61 -47 -52 -35 -32 
0 0 -12 -72 -48 -81 -74 -96 -37 -67 -45 -62 -45 -49 -50 -35 
0 0 0 -53 -36 -31 -45 -56 -12 -43 -19 -29 -12 -24 -49 -10 
0 0 -9 -51 -29 6 -39 -21 -6 -26 -23 -26 -3 -18 -31 -16 
0 0 -17 -64 -39 -25 -66 -44 -20 -29 -50 -58 -36 -19 -19 -48 
0 0 -15 -63 -21 -40 -58 -53 -8 -33 -42 -54 -37 0 -4 -39 
0 0 3 -48 2 -17 -24 -31 9 -22 -10 -26 -9 5 8 2 
1 0 0 -52 -18 -22 -33 -47 -2 -15 -6 -33 -14 -10 4 -4 
0 0 -7 -64 -44 -45 -67 -71 -12 -11 -28 -56 -31 -8 2 -43 
0 0 -11 -60 -26 -32 -69 -52 -9 -1 -35 -50 -10 2 4 -48 
0 0 -8 -46 -1 -7 -42 -22 3 5 -30 -24 6 -2 0 -19 
0 0 -10 -52 -6 -12 -36 -26 22 11 -30 -21 2 1 -3 -9 
0 0 -14 -64 -17 -32 -53 -53 16 13 -22 -40 2 4 -2 -26 
0 0 -15 -65 -11 -41 -52 -56 -5 3 -15 -49 -7 2 -1 -36 
0 0 -6 -61 2 -23 -32 -29 13 0 -21 -32 -14 3 -1 -21 
0 0 1 -60 -4 -6 -25 -18 38 -2 -17 -20 -5 -3 1 -12 
0 0 -5 -60 -13 -30 -39 -45 19 -21 -14 -34 -7 -18 -9 -25 
0 0 -4 -64 -14 -53 -53 -69 2 -24 -31 -43 -19 -19 -22 -33 
0 0 -11 -78 -23 -36 -63 -64 5 -11 -43 -42 -25 -19 -26 -32 
0 0 -16 -75 -25 -24 -57 -49 2 -23 -31 -50 -20 -37 -24 -31 
0 0 -12 -56 -2 -31 -30 -33 22 -35 -13 -45 -7 -34 -12 -18 
0 0 -1 -51 14 -21 -24 -26 53 -18 -8 -28 2 -2 2 -8 
0 0 -13 -73 2 -26 -47 -42 40 -4 -20 -47 -5 -2 0 -34 
0 0 -12 -78 -7 -45 -47 -52 21 -5 -17 -68 -10 -28 -5 -41 
0 0 -6 -70 2 -32 -31 -33 32 -8 -2 -50 -5 -25 7 -11 
0 0 -5 -74 -2 -20 -49 -30 20 -27 -22 -43 -8 -23 2 -15 
0 0 -13 -79 -10 -31 -58 -49 -6 -39 -36 -68 -13 -42 -10 -39 
0 0 -6 -66 -2 -33 -32 -43 15 -16 -4 -62 -8 -45 2 -24 
0 0 -8 -62 3 -32 -23 -30 38 -6 4 -38 1 -43 7 -10 
0 0 -8 -62 -7 -32 -30 -29 26 -22 -23 -33 -2 -55 -3 -17 
0 0 -3 -51 -9 -15 -34 -16 13 -10 -24 -14 -4 -41 -2 -7 
0 0 4 -48 1 -12 -58 -18 17 19 -17 -12 9 -12 18 -2 
0 0 -1 -67 4 -36 -66 -49 24 4 -20 -50 -2 -25 23 -19 
0 0 -3 -78 3 -38 -23 -46 30 -17 -6 -47 -29 -43 10 -9 
0 0 6 -63 6 -19 13 -16 31 -7 8 -2 -23 -31 2 27 
0 0 5 -52 6 -21 8 -11 27 -13 4 10 -10 -28 1 41 
0 0 1 -51 1 -27 3 -19 27 -31 -6 -1 -21 -34 0 32 
0 0 0 -55 -1 -23 3 -16 16 -13 -9 11 -22 -25 6 28 
0 0 6 -59 -2 -32 -14 -23 1 3 -7 11 -19 -22 7 14 
0 0 -5 -63 -5 -38 -33 -39 -2 -18 -13 -13 -31 -37 -1 -5 
0 0 -5 -60 -1 -29 -37 -42 -2 -33 -31 -28 -20 -30 10 -1 
0 0 -2 -65 6 -35 -33 -40 2 -25 -32 -22 1 -14 30 8 
0 0 -2 -74 -2 -68 -40 -59 2 -34 -24 -32 -21 -33 26 -9 
0 0 -8 -80 -10 -74 -53 -84 1 -31 -30 -65 -42 -37 6 -30 
0 0 -3 -77 -7 -54 -55 -82 1 -12 -30 -69 -37 -20 2 -27 
0 0 -6 -80 -6 -56 -47 -71 1 -19 -18 -48 -39 -39 19 -21 
0 0 1 -75 -1 -58 -30 -62 12 -34 -10 -30 -30 -52 21 -3 
0 0 5 -57 11 -33 -6 -34 39 -13 -3 -11 -12 -20 0 20 
0 0 6 -50 13 -23 2 -18 38 7 5 -2 -11 0 3 25 
0 0 0 -59 0 -31 -9 -32 1 -4 3 -9 -16 -7 21 18 
0 0 -3 -57 -5 -35 -9 -37 -5 5 -4 -4 -11 0 10 23 
0 0 1 -45 8 -40 1 -24 27 15 2 2 -14 -1 3 35 
0 0 5 -43 15 -20 -1 -22 27 13 6 2 -22 0 15 37 
0 0 2 -44 4 4 -4 -20 -1 18 2 9 -16 14 13 38 
0 0 -4 -44 -4 -14 0 -9 -5 -2 10 12 -7 4 -1 37 
0 0 6 -44 2 -23 -2 -4 6 -22 12 14 -6 -16 -2 32 
0 0 5 -46 2 -6 2 -2 4 -8 3 18 -15 -25 -4 36 
0 0 6 -42 -2 -7 4 -1 -6 9 12 18 -17 -15 1 50 
0 0 9 -38 10 -11 -8 -7 -9 18 30 18 -2 13 29 50 
0 0 21 -23 26 16 3 7 7 37 32 39 12 29 38 53 
0 0 15 -19 23 30 24 37 23 31 31 52 11 20 28 64 
0 0 14 -23 11 28 13 39 12 1 34 39 9 0 35 57 
0 0 11 -30 1 19 -13 22 -4 11 19 18 15 -5 34 33 
0 0 14 -33 -2 3 -10 20 7 31 10 10 22 8 11 34 
0 0 11 -35 20 11 7 30 32 27 28 14 26 23 20 55 
0 0 13 -37 38 24 9 21 38 20 34 11 18 14 45 50 
0 0 7 -48 9 -1 -1 -4 13 2 9 -3 1 -11 22 18 
0 0 0 -55 -17 -27 -9 -10 -15 -26 -4 -15 -4 -14 -7 1 
0 0 5 -43 14 -1 1 11 8 -4 23 -8 18 9 16 18 
0 0 17 -30 34 26 12 20 36 47 32 11 23 28 48 32 
0 0 11 -39 3 -7 -2 -4 1 31 0 2 2 11 34 15 
0 0 1 -48 -10 -34 -12 -18 -17 -1 -8 -19 -5 1 16 3 
0 0 9 -45 8 -20 -5 -12 11 9 6 -25 -2 10 35 11 
0 0 15 -41 25 -14 -5 -13 22 12 -2 -23 -2 8 61 16 
0 0 18 -37 27 -15 -15 -11 15 17 -4 -16 9 16 63 18 
0 0 11 -39 18 -2 -16 -3 13 31 13 -15 18 32 54 13 
0 0 8 -46 3 -9 -28 -15 -2 9 4 -34 -1 25 56 -8 
0 0 0 -56 -8 -29 -59 -41 -27 -10 -21 -58 -11 8 53 -25 
0 0 5 -52 3 -29 -64 -43 -20 1 -26 -58 0 20 47 -17 
0 0 0 -50 18 -30 -52 -37 0 1 -28 -51 0 34 64 -20 
0 0 3 -51 13 -40 -61 -48 -1 -8 -25 -58 -5 19 69 -23 
0 0 3 -49 1 -30 -62 -42 -4 7 -6 -54 -3 -2 38 -4 
0 0 11 -43 9 -19 -46 -24 4 17 4 -32 2 0 23 1 
0 0 9 -48 10 -25 -52 -27 -7 -1 -7 -31 -2 2 27 -21 
0 0 8 -48 6 -23 -58 -35 -19 1 -6 -36 -6 1 29 -11 
0 0 15 -29 30 3 -35 -9 10 31 15 2 14 33 48 32 
0 0 22 -22 30 7 -27 4 14 36 10 22 23 50 52 35 
0 0 14 -40 1 -20 -43 -22 -21 12 -4 -3 2 23 29 12 
0 0 6 -50 0 -27 -50 -39 -25 4 -4 -11 -8 2 27 7 
0 0 8 -45 8 -32 -57 -39 -12 3 -12 -14 -3 2 50 -5 
0 0 7 -49 -2 -39 -69 -46 -17 0 -20 -30 -5 2 46 -24 
0 0 5 -50 -4 -21 -67 -44 -27 6 -9 -36 -10 -1 29 -20 
0 0 -1 -50 0 -11 -55 -20 -26 9 -2 -30 -3 0 24 -14 
0 0 0 -47 -6 -15 -43 -2 -11 12 -7 -31 6 6 25 -24 
0 0 -4 -51 -2 -8 -32 1 8 19 -2 -33 8 13 30 -21 
0 0 -8 -59 1 -19 -32 -5 -2 9 0 -37 -5 7 28 -9 
0 0 -16 -63 -9 -37 -39 1 -25 -3 -11 -23 -14 4 25 -3 
0 0 0 -45 -10 -7 -28 46 -19 -7 -18 22 -6 -4 21 22 
0 0 8 -27 -2 30 12 100 -10 -1 -10 73 3 1 30 68 
0 0 13 -18 3 37 53 136 -15 7 10 121 2 31 47 113 
0 0 9 -18 -6 37 79 166 -26 -25 23 154 -6 6 23 136 
0 0 26 -6 11 65 113 216 -6 -52 35 197 9 -49 1 190 
0 0 43 15 43 111 127 263 39 -14 47 264 35 -37 22 252 
0 0 41 20 31 114 126 288 37 17 66 279 37 0 24 246 
0 0 25 10 -8 92 151 290 -6 -13 81 238 24 -17 -24 210 
0 0 20 3 -20 92 140 261 -26 -35 57 223 14 -28 -41 197 
0 0 21 -4 -19 79 84 201 -19 -24 19 212 -1 -3 -16 181 
0 0 14 -15 -20 46 80 165 -24 -29 23 169 -6 -8 -15 151 
0 0 7 -22 -18 23 100 155 -26 -39 52 132 1 -35 -36 125 
0 0 -5 -40 -34 5 51 106 -31 -34 15 98 -13 -40 -35 83 
0 0 -3 -47 -28 -4 -8 44 -32 -29 -41 62 -22 -20 -8 48 
0 0 7 -39 1 6 -3 41 0 -34 -3 59 -4 -18 1 48 
0 0 7 -44 -17 -17 8 40 -2 -38 44 42 -12 -31 -19 33 
0 0 -6 -52 -36 -40 -6 -2 -29 -29 18 3 -36 -16 -17 20 
0 0 5 -34 -5 -7 -6 3 -14 -23 -3 17 -19 5 3 36 
0 0 4 -33 6 9 -2 31 12 -29 11 32 3 2 -4 24 
0 0 -7 -56 -31 -42 -47 -25 -18 -49 -13 -12 -24 -31 -32 -14 
0 0 -13 -65 -54 -83 -99 -89 -58 -64 -44 -47 -47 -53 -44 -27 
0 0 2 -53 -45 -47 -81 -69 -42 -51 -30 -37 -29 -41 -32 -23 
0 0 -7 -52 -36 -23 -47 -45 -31 -44 -25 -41 -27 -31 -21 -43 
0 0 -18 -59 -32 -56 -68 -79 -57 -62 -52 -68 -49 -40 -18 -63 
0 0 -15 -66 -37 -62 -99 -102 -55 -62 -63 -66 -45 -42 -18 -67 
0 0 -14 -71 -49 -48 -92 -84 -44 -36 -49 -52 -26 -20 -27 -73 
0 0 -24 -70 -47 -62 -87 -72 -60 -39 -67 -63 -29 -16 -36 -80 
0 0 -19 -68 -33 -70 -98 -79 -44 -48 -88 -65 -33 -25 -33 -66 
0 0 -16 -83 -51 -69 -99 -99 -34 -47 -68 -76 -40 -38 -33 -83 
0 0 -31 -99 -74 -75 -95 -104 -64 -52 -59 -97 -50 -46 -35 -111 
0 0 -26 -83 -51 -66 -93 -86 -59 -43 -66 -77 -37 -24 -26 -89 
0 0 -16 -72 -42 -57 -93 -82 -45 -25 -55 -59 -26 -8 -28 -66 
0 0 -14 -75 -60 -65 -94 -88 -60 -27 -55 -73 -39 -17 -37 -76 
0 0 -16 -67 -43 -64 -96 -79 -42 -24 -65 -60 -29 -19 -25 -55 
0 0 -12 -60 -41 -67 -111 -84 -32 -26 -59 -43 -27 -32 -26 -40 
0 0 -24 -78 -68 -72 -127 -106 -68 -61 -47 -59 -60 -59 -41 -74 
0 0 -20 -76 -51 -49 -100 -90 -58 -70 -39 -57 -51 -47 -31 -75 
0 0 -19 -69 -27 -31 -62 -59 -18 -35 -44 -54 -9 -25 -24 -61 
0 0 -21 -80 -43 -45 -74 -62 -30 -15 -51 -80 -12 -24 -44 -78 
0 0 -24 -87 -46 -54 -96 -75 -41 -26 -41 -92 -28 -7 -45 -86 
0 0 -21 -86 -35 -56 -80 -82 -29 -53 -42 -98 -22 -19 -28 -81 
1 0 -25 -92 -43 -60 -65 -77 -29 -63 -56 -102 -30 -63 -31 -82 
1 0 -10 -71 -23 -32 -59 -44 -17 -24 -29 -55 -16 -37 -26 -55 
0 0 5 -40 8 5 -38 -12 11 21 7 -1 26 36 3 -14 
0 0 -3 -52 -11 -14 -38 -27 -5 2 -11 -17 10 11 4 -27 
1 0 -20 -81 -44 -44 -63 -62 -44 -40 -38 -56 -41 -68 -29 -63 
1 0 -17 -79 -39 -40 -66 -66 -41 -44 -37 -52 -36 -68 -41 -60 
1 0 -4 -63 -13 -33 -52 -55 -10 -32 -29 -33 -5 -28 -16 -41 
1 0 -6 -70 -1 -32 -51 -55 7 -25 -25 -44 -13 -34 4 -44 
1 0 -13 -81 -18 -42 -59 -65 -6 -31 -29 -61 -41 -62 -5 -59 
1 0 -15 -77 -37 -54 -56 -65 -25 -30 -26 -48 -33 -50 -23 -58 
1 0 -3 -62 -38 -44 -42 -51 -24 -22 -19 -28 -10 -36 -31 -43 
1 0 -11 -63 -32 -27 -31 -35 -14 -13 -17 -33 -12 -45 -21 -40 
1 0 -12 -67 -30 -29 -31 -23 -6 -7 -25 -31 -19 -52 -20 -41 
1 0 -12 -62 -24 -35 -32 -20 -1 -9 -30 -2 -5 -48 -29 -21 
1 0 -9 -55 -32 -28 -33 -31 -20 -8 -22 -3 -11 -34 -15 -15 
1 0 -15 -64 -39 -24 -33 -32 -31 -4 -19 -37 -33 -33 -4 -40 
1 0 -9 -70 -38 -27 -33 -15 -16 0 -28 -37 -24 -45 -19 -42 
0 0 -7 -63 -34 -19 -29 -5 -6 -4 -21 -2 -1 -39 -18 -5 
0 0 7 -46 -13 5 -9 5 9 -8 10 30 3 -20 5 23 
0 0 11 -43 6 14 9 20 32 1 28 32 2 -22 8 10 
1 0 6 -55 3 -4 13 12 31 8 29 14 1 -36 0 -10 
0 0 -5 -68 -1 -33 16 -15 20 8 28 -6 -3 -39 2 -16 
0 0 -6 -72 2 -35 12 -23 20 1 15 -9 -2 -46 -7 -13 
0 0 4 -61 2 5 8 10 27 -2 8 15 11 -44 -10 1 
0 0 7 -51 6 25 8 40 33 5 14 31 12 -29 3 15 
0 0 7 -50 7 2 2 23 27 9 13 23 -2 -22 8 16 
0 0 9 -50 -2 -7 0 0 9 9 10 16 -1 -21 3 6 
0 0 13 -52 -10 -20 2 -9 -7 -3 0 15 -6 -39 -6 -5 
0 0 7 -53 -8 -29 1 -8 -1 -7 -2 14 -24 -42 -4 -7 
0 0 9 -48 -1 -5 1 -9 17 0 20 11 -20 -14 11 2 
0 0 -1 -55 4 -14 -4 -21 17 -13 24 -6 -5 -14 13 -9 
0 0 0 -55 11 -30 -7 -16 21 -23 10 5 2 -39 6 -12 
0 0 6 -40 29 20 18 22 54 10 35 47 21 -12 22 32 
0 0 11 -29 38 55 39 47 73 47 65 54 39 33 46 58 
0 0 2 -41 17 24 26 45 56 31 45 34 28 5 27 27 
0 0 -3 -54 -3 4 8 38 36 -4 4 30 7 -46 -3 -1 
0 0 -15 -65 -14 1 -4 12 14 -10 -14 15 -4 -40 -8 -14 
0 0 -5 -61 -10 5 2 1 13 10 4 6 -2 -11 -4 -12 
0 0 5 -49 0 17 23 27 40 12 29 27 13 -14 -3 6 
0 0 6 -40 10 21 40 50 47 -4 34 51 29 -20 -3 24 
0 0 3 -37 14 26 28 46 34 11 33 55 31 -1 5 23 
0 0 1 -46 4 27 -2 29 15 18 19 33 18 5 25 11 
0 0 4 -50 10 24 -2 46 10 -3 7 27 21 4 31 16 
0 0 11 -39 25 38 20 72 30 7 17 52 40 14 14 31 
0 0 8 -37 14 41 16 54 28 32 14 49 27 6 3 28 
0 0 -3 -52 -6 17 -4 25 -1 20 -6 17 7 -23 5 11 
0 0 1 -53 -3 -3 -17 11 -12 -2 -10 11 9 -29 12 11 
0 0 -2 -52 -6 -7 -33 -6 -15 -7 -2 14 5 -28 7 9 
0 0 3 -49 -10 -10 -18 2 -18 -1 7 23 4 -38 -2 4 
0 0 12 -31 16 4 24 33 13 26 33 63 25 -17 13 31 
0 0 15 -25 17 9 19 22 20 18 38 67 17 -5 17 47 
0 0 4 -42 -5 2 -13 4 -11 -9 13 34 -8 -9 1 40 
0 0 10 -45 -1 4 -11 17 -13 14 1 30 6 -2 13 46 
0 0 10 -44 3 5 -5 9 -7 33 1 27 23 -7 29 31 
0 0 9 -44 -4 -5 -15 -9 -13 4 6 8 7 -20 13 4 
0 0 6 -43 9 -5 -7 8 2 -3 19 10 0 -8 19 9 
0 0 8 -46 18 5 8 18 15 9 18 14 5 -9 33 16 
0 0 -2 -60 -6 -15 -7 -9 -2 -14 -3 -1 -7 -38 4 -8 
0 0 -2 -56 -3 -21 -11 -6 6 -7 1 15 -7 -26 -7 -2 
0 0 6 -40 29 7 21 33 38 30 26 41 20 4 16 20 
0 0 5 -41 20 14 31 30 22 14 19 22 22 4 14 -1 
0 0 0 -54 -10 -6 2 -4 -17 -13 -5 0 0 -11 -5 -20 
0 0 1 -59 -12 -15 -12 0 -14 -3 -3 12 -4 -27 -5 -5 
0 0 6 -49 7 -11 7 28 8 3 7 18 6 -33 2 6 
0 0 -6 -59 5 -9 10 26 -2 2 4 -5 1 -26 6 -6 
0 0 -8 -80 -23 -14 -22 -1 -31 4 -4 -25 -8 -25 -5 -24 
0 0 -11 -84 -38 -29 -39 -4 -43 -21 -10 -22 -8 -42 -25 -34 
0 0 -14 -74 -30 -37 -34 -5 -34 -41 -25 -20 -18 -62 -30 -40 
0 0 -22 -77 -31 -30 -41 -30 -37 -31 -39 -34 -33 -65 -31 -41 
0 0 -12 -77 -39 -25 -46 -30 -47 -25 -17 -42 -22 -43 -37 -28 
0 0 -12 -72 -31 -22 -27 -3 -31 -26 6 -21 -9 -32 -34 -14 
0 0 -16 -75 -38 -36 -33 -21 -25 -36 -13 -16 -17 -61 -29 -32 
0 0 -19 -85 -51 -51 -53 -49 -43 -39 -27 -41 -20 -68 -33 -51 
0 0 -9 -72 -25 -37 -23 -19 -29 -13 5 -33 -3 -36 -34 -28 
0 0 -1 -57 -7 -15 0 16 -3 -1 12 -8 5 -24 -27 -6 
0 0 11 -44 -2 16 -1 34 11 1 9 20 11 -25 4 16 
0 0 14 -27 16 49 23 54 24 17 42 54 29 -2 23 47 
0 0 13 -21 19 39 33 52 17 23 48 70 34 13 8 58 
0 0 11 -28 1 7 7 32 -5 13 17 57 26 2 3 48 
0 0 7 -35 -6 7 -3 27 1 7 17 37 29 -5 13 36 
0 0 6 -36 10 19 6 21 7 6 39 25 26 4 14 20 
0 0 11 -41 19 6 4 3 -1 26 28 16 10 18 30 12 
0 0 15 -46 9 -11 1 11 16 30 14 21 2 -2 37 20 
0 0 1 -53 -4 1 0 36 23 -6 26 25 12 -31 12 20 
0 0 -1 -50 10 24 9 35 9 -5 35 28 19 -11 17 17 
0 0 4 -46 32 20 25 28 27 32 34 28 26 17 37 18 
0 0 7 -49 23 4 24 28 43 26 34 11 26 -1 12 17 
0 0 -2 -51 17 15 24 31 36 10 42 6 24 -13 -11 20 
0 0 5 -43 29 32 31 31 42 19 38 25 29 3 6 30 
0 0 -2 -45 22 22 30 27 51 15 29 29 28 0 9 23 
0 0 -5 -49 -1 10 33 34 34 -1 33 11 22 -13 -7 10 
0 0 -7 -53 -3 10 26 47 19 -2 30 5 13 -12 4 11 
0 0 -4 -53 4 8 10 50 16 5 19 18 7 -9 12 17 
0 0 -3 -51 2 11 31 72 23 15 19 37 15 0 5 21 
0 0 8 -44 1 25 79 109 35 8 33 71 22 0 1 56 
0 0 8 -39 -3 18 91 126 19 -8 30 111 15 -26 -7 107 
0 0 15 -19 9 27 113 176 8 -3 35 156 25 -15 0 143 
0 0 31 7 19 81 150 244 23 7 49 203 41 22 15 162 
0 0 27 1 3 105 141 246 27 -2 43 235 22 7 7 184 
0 0 30 -3 21 97 145 244 38 18 63 255 20 0 16 221 
0 0 40 11 53 97 181 246 46 39 97 258 41 44 50 224 
0 0 36 1 23 78 170 199 23 4 80 228 20 37 28 175 
0 0 22 -24 -7 47 126 171 5 -11 47 184 -10 -4 -9 136 
0 0 17 -26 11 41 104 168 8 6 36 144 -9 -3 2 125 
0 0 -4 -34 8 24 87 114 3 -3 25 105 -10 -7 0 99 
0 0 -12 -51 -19 -6 64 58 -5 -18 12 69 -22 -36 -35 55 
0 0 -12 -56 -35 -16 23 38 -18 -22 -16 45 -24 -44 -46 32 
0 0 -3 -48 -32 -19 -14 21 -32 -26 -22 48 -18 -28 -21 38 
0 0 1 -42 -11 -7 10 33 -9 -5 27 61 -2 -9 3 31 
0 0 0 -38 -13 9 23 47 10 1 33 42 5 -16 -18 2 
0 0 -7 -42 -31 6 -16 21 -10 -28 -12 21 2 -32 -42 2 
0 0 -2 -42 -26 1 -39 3 -24 -20 -16 30 7 -20 -29 2 
0 0 -10 -50 -27 4 -48 4 -30 -7 -21 4 -5 -20 -32 -52 
0 0 -9 -59 -37 -10 -81 -12 -41 -22 -48 -38 -16 -34 -42 -73 
0 0 2 -56 -32 -48 -87 -43 -43 -36 -28 -33 -13 -32 -18 -46 
0 0 -2 -55 -12 -47 -48 -42 -28 -41 2 -19 -13 -26 -1 -41 
0 0 -4 -46 -1 -12 -24 -10 -7 -17 5 -11 -3 -13 -11 -37 
0 0 7 -36 2 5 -29 1 5 26 2 22 22 10 -1 -5 
0 0 16 -33 14 25 -27 5 25 44 0 39 39 18 22 19 
0 0 14 -30 39 54 -1 41 52 47 34 32 45 22 21 22 
0 0 14 -26 31 43 10 45 49 40 72 30 36 22 4 4 
0 0 3 -35 10 22 6 11 31 15 57 14 22 5 -1 -14 
0 0 5 -33 11 29 -8 10 29 11 25 3 30 -2 -4 -1 
0 0 4 -27 12 27 -40 19 33 35 19 23 36 13 -4 3 
0 0 3 -32 15 24 -52 16 36 44 26 20 28 30 10 -15 
0 0 -5 -45 23 25 -31 15 37 33 27 -17 28 22 15 -19 
0 0 -6 -59 3 -2 -20 -9 20 5 19 -34 14 -5 0 -23 
0 0 -13 -67 -18 -19 -44 -37 8 -10 -2 -35 -11 -6 2 -38 
0 0 -4 -52 -3 -4 -63 -23 19 9 0 -30 1 5 9 -32 
0 0 2 -45 7 3 -64 -5 19 28 2 -16 23 -2 0 -25 
0 0 -5 -53 -6 2 -64 -6 0 24 -16 -12 13 -9 -4 -43 
0 0 -18 -56 -7 1 -61 -9 -9 -4 -15 -17 -4 -21 -5 -46 
0 0 -6 -47 -1 -12 -71 -16 -1 -28 -12 -16 -1 -44 -18 -28 
0 0 5 -43 0 -17 -84 -19 14 -20 -16 -10 5 -38 -31 -34 
0 0 -10 -51 -9 -17 -69 -29 8 -29 -11 -19 -2 -37 -30 -55 
0 0 -19 -72 -26 -53 -56 -63 -22 -70 -12 -57 -32 -72 -34 -72 
0 0 -16 -83 -38 -86 -95 -82 -37 -69 -34 -91 -45 -62 -44 -89 
0 0 -3 -54 -19 -36 -106 -33 -10 -19 -30 -52 2 -10 -36 -61 
0 0 1 -36 9 15 -46 5 15 0 14 8 32 -8 -21 -10 
0 0 -1 -55 6 -19 -27 -23 1 -1 25 -6 -3 -22 -21 -23 
0 0 -15 -75 -13 -43 -67 -37 -1 11 5 -43 -20 -5 -29 -69 
0 0 -20 -73 -29 -30 -91 -21 -2 -16 -22 -46 0 -23 -27 -75 
0 0 -25 -77 -32 -25 -100 -30 -18 -33 -33 -48 -1 -42 -10 -70 
0 0 -19 -80 -27 -29 -103 -50 -23 2 -22 -62 -14 -19 -11 -73 
0 0 -23 -79 -33 -33 -95 -40 -21 16 -15 -61 -10 -28 -32 -76 
0 0 -23 -80 -30 -40 -89 -29 -15 -6 -26 -54 -6 -55 -32 -82 
0 0 -29 -85 -17 -41 -90 -39 -2 -5 -29 -64 -9 -41 -27 -93 
0 0 -30 -90 -23 -48 -93 -51 -6 6 -29 -73 -6 -33 -48 -94 
0 0 -19 -80 -18 -52 -82 -34 -9 6 -19 -50 14 -27 -35 -70 
0 0 2 -65 7 -27 -55 1 11 11 19 -25 29 -3 7 -33 
0 0 -3 -66 4 -6 -43 -4 10 -3 39 -37 15 -15 -5 -34 
0 0 -16 -69 -10 -13 -54 -23 -9 0 13 -37 4 -28 -35 -57 
0 0 -13 -65 -14 -24 -63 -21 -13 30 -8 -25 10 -10 -32 -69 
0 0 -16 -71 -18 -24 -64 -16 -20 19 -2 -37 10 -14 -19 -74 
0 0 -20 -76 -15 -24 -78 -27 -32 -3 -3 -52 7 -26 -7 -69 
0 0 -23 -77 -19 -42 -107 -44 -44 6 -27 -62 4 -20 -17 -75 
0 0 -25 -86 -50 -66 -122 -63 -62 -15 -50 -91 -20 -55 -53 -101 
0 0 -33 -100 -65 -69 -109 -72 -65 -48 -50 -106 -39 -94 -70 -104 
0 0 -28 -92 -54 -57 -101 -63 -64 -23 -38 -88 -23 -54 -54 -86 
0 0 -31 -85 -56 -47 -110 -57 -74 -5 -42 -79 -11 -25 -51 -82 
0 0 -24 -79 -64 -50 -105 -61 -71 -32 -45 -73 -16 -59 -70 -78 
0 0 -27 -82 -60 -56 -102 -58 -68 -34 -46 -64 -15 -57 -71 -77 
0 0 -34 -95 -54 -59 -117 -57 -78 -26 -54 -68 -17 -41 -49 -90 
0 0 -45 -117 -61 -91 -125 -89 -78 -39 -68 -97 -38 -77 -52 -110 
0 0 -36 -113 -68 -114 -118 -111 -67 -40 -61 -111 -47 -93 -82 -111 
0 0 -31 -97 -57 -80 -91 -76 -62 -35 -33 -92 -36 -65 -76 -96 
0 0 -31 -101 -53 -70 -93 -64 -77 -42 -43 -92 -39 -72 -55 -101 
0 0 -41 -111 -63 -100 -124 -96 -94 -46 -61 -112 -47 -81 -58 -119 
0 0 -35 -100 -63 -85 -121 -86 -91 -53 -37 -97 -32 -50 -48 -105 
0 0 -27 -87 -55 -57 -94 -58 -86 -56 -26 -68 -19 -32 -19 -81 
0 0 -29 -81 -41 -60 -79 -60 -80 -28 -37 -63 -22 -31 -14 -74 
0 0 -28 -76 -29 -54 -74 -58 -63 0 -23 -57 -20 -20 -36 -70 
0 0 -26 -79 -42 -50 -79 -55 -69 -5 -14 -53 -20 -21 -55 -66 
0 0 -22 -85 -57 -69 -88 -70 -100 -36 -31 -69 -32 -39 -52 -73 
0 0 -21 -82 -46 -71 -72 -70 -94 -58 -24 -74 -34 -51 -50 -77 
0 0 -13 -76 -37 -59 -61 -59 -65 -38 -17 -57 -21 -56 -69 -62 
0 0 -21 -79 -39 -57 -90 -62 -71 -13 -37 -51 -19 -61 -75 -60 
0 0 -23 -75 -37 -57 -104 -66 -83 -30 -42 -61 -34 -54 -62 -76 
0 0 -24 -71 -32 -46 -75 -62 -61 -39 -18 -58 -27 -39 -57 -76 
0 0 -20 -73 -28 -38 -54 -54 -46 -11 -3 -49 -10 -27 -43 -58 
0 0 -27 -80 -33 -54 -73 -58 -75 1 -18 -66 -19 -21 -25 -71 
0 0 -22 -76 -34 -62 -81 -68 -85 -15 -30 -72 -25 -28 -29 -83 
0 0 -16 -69 -11 -38 -52 -52 -46 -7 -8 -42 -9 -28 -31 -49 
0 0 -13 -72 -11 -43 -52 -48 -52 12 2 -41 -17 -21 -26 -38 
0 0 -19 -83 -36 -73 -76 -71 -97 -10 -21 -76 -39 -38 -38 -69 
0 0 -14 -76 -32 -54 -66 -60 -89 -31 -28 -63 -29 -48 -47 -64 
0 0 -21 -72 -25 -24 -59 -54 -70 -6 -22 -40 -26 -19 -33 -47 
0 0 -24 -86 -33 -46 -75 -80 -75 -5 -24 -56 -32 -17 -24 -59 
0 0 -16 -83 -15 -71 -66 -65 -70 -33 -12 -56 -15 -53 -23 -57 
0 0 -9 -69 2 -51 -34 -20 -63 -30 9 -32 -10 -55 -18 -31 
0 0 -9 -70 -21 -27 -21 -22 -76 -24 8 -29 -28 -30 -31 -29 
0 0 -10 -74 -33 -40 -37 -43 -80 -33 -4 -36 -28 -29 -49 -36 
0 0 -12 -71 -18 -66 -56 -46 -77 -32 -15 -37 -15 -45 -41 -38 
0 0 -22 -76 -9 -58 -49 -43 -70 -24 -13 -41 -16 -29 -22 -42 
0 0 -14 -70 -4 -17 -30 -29 -55 -9 0 -28 -17 4 -9 -35 
0 0 -9 -67 -4 -10 -26 -27 -68 -3 10 -14 -14 -7 -15 -23 
0 0 -12 -80 -27 -56 -40 -56 -98 -24 -2 -28 -27 -41 -38 -28 
0 0 -26 -89 -40 -74 -61 -69 -103 -24 -28 -53 -33 -33 -32 -54 
0 0 -21 -73 -23 -44 -60 -64 -92 5 -30 -58 -28 -16 -16 -57 
0 0 -15 -68 -12 -43 -42 -60 -89 3 -6 -39 -28 -28 -23 -28 
0 0 -9 -65 -12 -49 -36 -49 -94 -18 5 -24 -17 -36 -23 -14 
0 0 -14 -58 -18 -18 -39 -41 -93 -15 1 -26 -8 -36 -27 -27 
0 0 -8 -59 -23 -21 -30 -40 -91 0 2 -21 -19 -20 -34 -25 
0 0 -11 -67 -20 -61 -31 -41 -93 -7 1 -19 -25 1 -18 -16 
0 0 -12 -65 -19 -53 -42 -38 -95 -24 0 -35 -14 -14 -13 -30 
0 0 -16 -65 -28 -31 -38 -47 -95 -20 2 -47 -17 -39 -33 -40 
0 0 -21 -75 -26 -50 -28 -47 -91 -9 -3 -41 -20 -32 -41 -32 
0 0 -16 -71 -19 -51 -26 -28 -95 -5 -4 -30 -11 -11 -32 -28 
0 0 -12 -70 -27 -24 -31 -19 -91 -6 1 -27 -17 -4 -23 -36 
0 0 -13 -78 -25 -27 -25 -21 -84 -6 -1 -26 -19 -6 -10 -31 
0 0 -12 -69 -6 -34 5 10 -80 6 -2 -1 -3 0 -13 -1 
0 0 3 -46 -1 -11 43 67 -78 22 16 41 8 12 2 34 
0 0 1 -45 -5 6 72 92 -81 10 25 78 0 7 23 63 
0 0 7 -41 -2 12 100 111 -79 -10 23 121 -7 -14 -13 96 
0 0 18 -22 9 44 162 192 -63 4 50 176 2 -15 -46 142 
0 0 18 -17 2 67 199 233 -67 0 52 216 1 -22 -31 176 
0 0 11 -28 -4 53 164 200 -88 -37 21 235 -6 -38 -21 187 
0 0 26 -19 19 57 177 217 -76 -32 58 247 4 -19 -18 190 
0 0 19 -15 31 69 239 269 -62 3 106 235 11 -1 4 173 
0 0 8 -31 5 47 206 238 -85 5 53 199 -10 -29 -5 148 
0 0 9 -43 -12 32 125 178 -103 -17 3 174 -14 -38 -35 134 
0 0 10 -37 -2 41 119 169 -99 -28 37 160 2 -23 -31 115 
0 0 -3 -39 -5 37 127 151 -102 -21 52 126 -7 -33 -16 86 
0 0 4 -47 -4 14 89 107 -103 5 17 97 -12 -15 -4 73 
0 0 8 -52 -1 -6 50 68 -93 1 1 87 -7 -4 4 57 
0 0 -1 -57 -18 -1 39 50 -105 -32 16 58 -22 -48 -12 32 
0 0 -10 -66 -35 -2 20 30 -131 -28 -2 4 -40 -68 -40 12 
0 0 -12 -71 -25 -28 -9 -13 -121 -23 -26 -17 -29 -39 -31 -4 
0 0 -8 -64 -3 -22 -1 -6 -89 -35 0 -2 -15 -24 -5 -20 
0 0 -13 -67 -6 0 19 31 -94 -10 19 -7 -20 -30 -11 -25 
0 0 -20 -73 -34 -26 -2 6 -121 25 -12 -25 -22 -18 -24 -24 
1 0 -18 -60 -24 -32 -17 -18 -107 19 -16 -1 -9 -2 -9 -15 
0 0 -2 -41 3 10 -4 3 -86 0 12 19 -5 -1 7 2 
1 0 -10 -49 -14 7 -20 -8 -105 -4 -10 -8 -9 -5 -6 4 
1 0 -10 -57 -39 -39 -35 -27 -118 -7 -30 -10 -5 -5 -24 5 
1 0 -5 -53 -30 -29 -15 -11 -106 -5 -2 12 -6 -6 -27 -2 
1 0 3 -49 -20 -8 4 -11 -106 -8 12 7 -15 -16 -27 -18 
0 0 0 -44 -8 -21 -5 -8 -102 2 -2 4 -4 4 -9 -5 
1 0 6 -37 8 -8 -19 16 -85 27 4 15 6 20 10 21 
1 0 -4 -58 -4 -8 -16 -13 -96 8 12 -25 -11 -14 8 -16 
1 0 -20 -86 -35 -67 -27 -67 -134 -43 -18 -87 -40 -56 -6 -73 
0 0 -16 -80 -40 -76 -38 -55 -138 -38 -24 -81 -40 -48 -10 -56 
0 0 -6 -63 -22 -19 -26 -20 -106 0 -4 -38 -10 -21 -14 -19 
0 0 -16 -65 -22 -22 -30 -12 -101 -3 -5 -30 -6 -22 -27 -26 
0 0 -17 -60 -29 -51 -42 -4 -115 -13 -5 -45 -21 -25 -26 -29 
0 0 -3 -44 -16 -13 -17 8 -104 10 4 -42 -12 2 -6 -15 
0 0 -13 -49 -17 12 -3 11 -103 32 -1 -35 5 35 12 -25 
0 0 -21 -53 -31 -25 -33 16 -127 22 -16 -42 1 38 4 -41 
0 0 -10 -46 -14 -41 -35 25 -110 8 -7 -40 -8 7 -2 -25 
0 0 -5 -56 5 -19 -20 17 -83 -4 -8 -35 -19 -31 -3 -19 
0 0 -25 -73 -5 -23 -34 20 -96 -22 -29 -43 -24 -40 -20 -33 
0 0 -14 -63 -7 -43 -35 24 -103 -22 -20 -53 -18 -19 -22 -26 
0 0 1 -60 7 -30 -3 28 -83 -7 10 -39 -23 -5 -1 -12 
0 0 -4 -63 2 -16 9 64 -74 -23 11 -17 -16 -9 1 -17 
0 0 -18 -67 1 -27 -5 88 -74 -40 -4 -30 1 -4 3 -24 
0 0 -4 -70 6 -36 -3 70 -81 -17 -1 -58 -21 -1 12 -19 
0 0 -6 -76 -9 -34 14 65 -90 -3 0 -57 -44 -9 -5 -24 
0 0 -12 -72 -15 -18 23 87 -83 -1 -5 -38 -12 -7 -16 -26 
0 0 -15 -64 -3 -8 19 103 -76 17 -4 -25 19 6 2 -21 
0 0 -7 -49 4 -4 26 130 -78 27 7 -4 16 20 8 -8 
0 0 -1 -43 0 23 42 161 -75 24 24 12 16 28 3 3 
0 0 -2 -49 13 41 48 161 -50 34 36 11 19 13 22 11 
0 0 -11 -53 17 6 45 147 -34 29 27 0 10 -9 28 19 
0 0 -18 -70 -14 -31 30 132 -73 -17 2 -27 -4 -15 4 -4 
0 0 -11 -70 -14 -5 30 134 -90 -25 12 -33 1 -10 5 -24 
0 0 -3 -45 33 37 65 169 -36 22 52 9 27 4 31 3 
0 0 0 -40 41 28 82 199 -16 34 54 28 37 26 32 27 
0 0 -9 -61 4 1 56 193 -67 6 27 -4 3 29 17 0 
1 0 -13 -66 -10 -10 36 171 -87 -20 20 -29 -27 -16 8 -19 
1 0 -13 -55 1 -4 48 182 -56 -18 27 -16 -7 -45 -14 0 
1 0 3 -38 17 18 69 220 -34 9 30 29 25 -4 -15 24 
1 0 3 -35 23 31 77 230 -29 18 30 49 27 24 13 24 
1 0 1 -43 5 25 67 213 -26 -4 24 16 13 -6 17 15 
1 0 -2 -43 4 25 65 216 -2 14 23 9 26 12 13 17 
1 0 -1 -46 4 16 55 212 2 34 9 21 35 44 20 8 
1 0 -10 -64 -5 4 38 203 -8 2 -10 -4 15 7 25 -11 
1 0 -1 -53 20 34 59 221 17 -10 15 -4 14 -23 26 7 
1 0 -1 -40 33 42 69 212 17 3 28 17 28 -16 23 15 
1 0 -12 -58 5 12 48 195 -18 1 3 9 21 -5 23 -7 
0 0 -17 -72 -5 13 40 202 -26 0 2 -11 10 5 23 -17 
0 0 -17 -67 -9 17 24 185 -38 -8 2 -28 2 -7 6 -27 
0 0 -21 -67 -25 -15 2 152 -61 -21 -18 -35 -11 -31 -6 -40 
0 0 -16 -65 -4 -15 26 157 -39 -5 -12 -14 0 -4 16 -20 
0 0 -4 -48 9 17 41 173 -24 14 7 12 14 20 30 3 
0 0 -5 -39 -2 21 28 162 -40 12 7 27 5 2 25 14 
0 0 -1 -40 13 12 46 147 -23 3 17 36 11 9 34 41 
0 0 8 -40 23 23 67 164 2 5 39 39 33 16 28 66 
0 0 20 -31 18 42 65 192 -9 28 43 51 35 4 6 65 
0 0 7 -35 19 34 61 174 -20 28 29 49 26 -2 1 50 
0 0 -3 -46 6 4 42 132 -29 -6 5 17 22 0 3 29 
0 0 -5 -51 -9 -2 25 130 -50 -4 -1 3 22 14 -1 17 
0 0 6 -47 -5 7 28 133 -56 22 6 19 18 16 -4 20 
0 0 -2 -54 1 3 23 119 -42 0 -8 5 5 -5 -1 12 
0 0 -11 -69 -3 -6 14 108 -38 -31 -18 -26 -3 -19 5 -1 
0 0 -7 -66 5 2 30 114 -32 -8 8 -18 16 -6 13 6 
0 0 4 -55 9 8 44 134 -21 10 26 4 27 -4 1 17 
0 0 -6 -65 -8 -5 26 128 -41 -8 -2 -12 5 -18 -12 6 
0 0 -6 -68 3 -4 27 103 -42 2 -3 -12 0 -1 0 11 
0 0 9 -42 32 17 58 117 -7 20 26 27 22 21 12 47 
0 0 2 -37 11 22 37 126 -24 -2 7 21 19 10 0 41 
0 0 -14 -59 -33 -4 -14 86 -76 -27 -23 -19 -13 -18 -14 -12 
0 0 -13 -61 -31 -22 0 70 -72 -29 -9 -22 -18 -9 -4 -20 
0 0 0 -47 -9 -12 32 96 -44 -24 2 -6 -1 2 -2 14 
0 0 1 -49 -5 2 38 105 -40 -20 -2 3 -2 -32 -24 29 
0 0 -1 -50 -4 -5 47 85 -49 -26 5 6 -11 -52 -26 18 
0 0 -7 -50 -8 -8 40 86 -59 -37 1 0 -13 -33 -8 6 
0 0 6 -39 1 23 43 137 -49 -19 11 21 5 -5 2 29 
0 0 6 -28 10 48 68 167 -42 2 29 51 30 4 9 47 
0 0 -1 -37 -7 24 42 118 -65 -16 3 23 13 -6 13 18 
0 0 0 -40 4 14 28 109 -52 -6 7 7 -4 11 25 20 
0 0 15 -19 27 35 68 164 -25 33 38 42 22 47 31 60 
0 0 8 -25 5 30 30 150 -55 22 14 38 31 36 8 44 
0 0 5 -45 -9 15 53 101 -64 -6 -6 -1 0 -3 -3 13 
0 0 2 -45 13 12 297 98 -29 15 5 -9 -1 6 20 32 
0 0 2 -44 13 5 499 100 -48 32 -14 -2 24 19 19 31 
0 0 -1 -58 -10 -3 532 91 -77 10 -26 -8 26 4 -4 4 
0 0 -5 -68 -15 -16 578 77 -64 -6 -13 -22 7 -8 0 -3 
0 0 -9 -68 -16 -33 653 50 -64 -5 -19 -39 -12 -7 3 -2 
0 0 -2 -56 -7 -21 692 53 -59 -7 -7 -25 -7 -8 -18 16 
0 0 6 -39 7 9 733 101 -33 0 25 13 28 -4 -20 44 
0 0 -2 -38 -3 15 747 118 -43 13 15 19 40 14 2 37 
0 0 -6 -45 -11 2 735 83 -66 -5 -8 0 12 2 -5 11 
0 0 -13 -55 -8 -7 751 60 -64 -36 -10 -9 -10 -33 -28 10 
0 0 -11 -52 -7 1 758 74 -65 -22 -16 -6 -4 -27 -11 20 
0 0 -6 -47 -1 4 756 80 -61 7 -29 -1 7 4 10 16 
0 0 3 -52 -2 -18 767 59 -68 -9 -35 -1 -3 -5 -10 16 
0 0 -1 -54 -12 -16 783 60 -85 -23 -14 7 -12 -7 -8 29 
0 0 0 -49 -15 4 778 65 -83 -2 2 12 -12 5 4 26 
0 0 -8 -53 -8 -5 766 56 -76 -9 -5 8 -6 -26 -21 15 
0 0 2 -47 -7 -7 774 67 -80 -27 -5 22 4 -36 -27 31 
1 0 10 -32 -4 13 776 76 -74 6 -1 37 11 10 4 46 
1 0 10 -31 -1 12 765 62 -68 38 -3 33 18 25 -2 41 
1 0 0 -43 -10 -3 772 59 -77 11 4 16 22 -12 -39 32 
1 1 0 -50 -13 -4 771 56 -74 -9 11 4 13 -9 -36 31 
1 1 -4 -49 -7 9 748 52 -77 11 2 10 0 25 -5 38 
1 1 -2 -42 1 28 759 83 -77 10 10 46 9 15 7 59 
1 0 7 -31 2 31 801 125 -57 7 34 80 24 -7 -3 85 
1 0 5 -24 6 35 807 142 -47 34 32 96 25 12 3 105 
1 0 8 -15 17 65 802 165 -52 35 27 133 27 25 33 132 
1 0 20 -12 24 76 832 199 -50 21 58 176 33 23 42 160 
1 0 31 -12 18 55 851 199 -51 23 59 185 29 24 23 186 
0 0 28 -5 18 66 833 188 -51 16 20 189 21 16 19 214 
0 0 40 12 44 98 849 219 -32 12 56 228 32 16 35 238 
0 0 49 17 58 114 899 258 -19 28 142 267 57 39 31 249 
0 0 54 23 50 129 885 265 -31 41 141 288 62 56 13 268 
0 0 45 23 48 119 837 243 -35 25 87 299 37 40 16 287 
0 0 52 20 58 96 859 229 -13 -6 101 312 24 9 27 302 
0 0 56 22 66 119 890 238 2 4 144 312 50 -3 30 314 
0 0 48 23 66 133 867 227 -6 34 146 275 60 16 29 296 
0 0 30 10 60 101 839 181 -12 27 120 230 38 28 24 252 
0 0 31 -4 54 80 790 129 -18 11 73 205 24 20 29 211 
0 0 22 -17 55 65 716 85 -27 18 49 168 33 28 49 176 
0 0 9 -22 53 49 683 56 -27 32 80 125 34 32 47 149 
0 0 11 -16 39 56 672 47 -31 43 98 113 24 22 25 125 
0 0 12 -17 35 66 638 25 -40 47 63 106 41 40 38 101 
0 0 6 -23 43 54 622 -2 -39 39 52 84 61 66 58 98 
0 0 7 -26 34 44 610 -8 -47 30 62 77 41 30 28 103 
0 0 7 -34 21 32 561 -37 -67 23 32 58 13 -19 4 65 
1 0 2 -40 33 15 550 -65 -60 26 23 38 26 3 30 47 
1 0 11 -36 36 11 565 -56 -45 30 35 27 34 30 37 57 
1 0 10 -35 26 15 542 -58 -41 29 27 18 20 25 22 48 
1 0 15 -18 43 40 535 -72 -29 48 45 47 40 45 40 60 
1 0 10 -20 47 40 537 -72 -33 57 49 59 58 61 52 68 
1 0 5 -44 13 -6 485 -82 -63 30 -12 7 26 25 28 24 
1 0 0 -38 15 -8 463 -89 -66 23 -18 -8 12 25 25 8 
1 0 10 -17 38 21 482 -87 -54 43 38 23 33 56 36 38 
0 0 6 -36 28 -3 454 -110 -64 44 24 -1 27 33 32 19 
0 0 6 -43 26 -25 444 -108 -53 34 0 -13 28 14 33 -1 
1 0 1 -29 35 1 463 -86 -35 29 24 17 36 31 32 17 
0 1 1 -43 21 5 435 -109 -53 25 18 -2 6 36 27 20 
0 1 7 -50 22 -8 421 -125 -63 31 3 -22 -2 40 47 18 
0 0 8 -35 35 9 435 -91 -39 37 17 -1 34 44 52 21 
0 0 -4 -44 26 8 401 -84 -44 22 11 -4 33 22 26 5 
0 0 -6 -58 20 -2 380 -115 -59 25 -5 -22 5 26 27 -5 
0 0 -1 -45 25 -6 398 -123 -53 49 -1 -14 -1 54 39 8 
0 0 -7 -40 24 -22 383 -121 -60 34 0 -23 5 33 33 6 
0 0 -1 -44 27 -12 368 -127 -58 -3 -5 -26 19 6 27 4 
0 0 2 -49 28 2 370 -126 -25 -4 -6 -5 23 0 18 6 
0 0 -7 -54 16 -20 345 -127 -26 17 -12 -13 5 -6 2 -6 
0 0 -24 -66 5 -39 314 -137 -60 13 -22 -43 -2 -4 -4 -22 
0 0 -18 -71 2 -25 326 -139 -59 -3 -19 -54 2 0 -3 -38 
0 0 -13 -71 2 -31 348 -132 -47 -2 -6 -59 4 2 0 -50 
0 0 -11 -73 -2 -49 329 -151 -67 -1 -14 -84 -2 -5 -2 -50 
0 0 -19 -80 -3 -39 301 -164 -65 -7 -36 -89 -6 -4 -12 -55 
0 0 -16 -75 -1 -27 303 -135 -51 -9 -31 -60 9 10 -1 -52 
0 0 -14 -64 4 -24 316 -125 -59 0 -10 -41 20 25 34 -29 
0 0 -9 -66 2 -30 311 -145 -55 0 -14 -47 -2 8 30 -26 
0 0 -19 -75 -1 -36 295 -141 -38 -7 -25 -48 -16 -23 -5 -39 
0 0 -20 -64 9 -21 298 -118 -32 4 -7 -29 8 -14 -7 -20 
0 0 -13 -54 19 2 307 -115 -37 25 19 -19 22 9 17 -3 
0 0 -13 -67 5 -19 294 -130 -47 19 7 -35 5 -5 14 -24 
0 0 -23 -85 -23 -65 268 -153 -64 -15 -23 -62 -14 -33 -16 -42 
0 0 -27 -84 -30 -52 255 -154 -77 -19 -25 -62 -11 -36 -32 -39 
0 0 -25 -79 -29 -27 245 -142 -78 -3 -25 -57 -27 -34 -35 -49 
0 0 -29 -88 -31 -65 232 -163 -59 -4 -36 -79 -57 -31 -28 -65 
0 0 -28 -93 -30 -89 222 -181 -54 -19 -38 -87 -32 -28 -23 -70 
1 0 -35 -98 -43 -62 198 -168 -90 -47 -43 -78 -8 -46 -32 -83 
1 0 -28 -93 -37 -51 195 -163 -92 -49 -52 -78 -34 -41 -25 -82 
1 0 -18 -78 -8 -69 226 -161 -53 -3 -38 -73 -19 3 2 -50 
0 0 -11 -64 -6 -53 235 -135 -52 17 -20 -53 44 21 8 -31 
0 0 -23 -73 -30 -33 213 -128 -73 -16 -26 -47 50 -7 -15 -46 
0 0 -20 -78 -31 -52 197 -151 -70 -19 -38 -53 32 -23 -25 -53 
0 0 -23 -74 -26 -69 190 -161 -66 -1 -36 -65 57 -21 -23 -50 
0 0 -21 -74 -31 -51 181 -154 -75 -20 -30 -68 67 -31 -34 -50 
0 0 -19 -78 -25 -40 184 -148 -65 -34 -28 -55 50 -36 -48 -53 
0 0 -15 -75 -23 -53 186 -144 -54 -29 -30 -53 54 -31 -51 -50 
0 0 -24 -77 -36 -65 162 -152 -70 -33 -37 -71 60 -31 -35 -55 
0 0 -29 -87 -47 -76 131 -170 -91 -37 -51 -88 47 -38 -31 -78 
0 0 -34 -95 -50 -88 114 -182 -96 -33 -70 -105 42 -40 -41 -100 
0 0 -28 -87 -36 -79 123 -174 -92 -22 -65 -101 53 -22 -23 -87 
0 0 -20 -75 -17 -64 141 -155 -75 -6 -40 -75 68 -5 -4 -58 
0 0 -27 -79 -28 -65 138 -147 -61 -9 -41 -67 73 -18 -26 -56 
0 0 -30 -84 -52 -57 120 -143 -66 -35 -57 -68 56 -35 -60 -58 
0 0 -22 -72 -49 -22 122 -111 -73 -37 -48 -38 65 -23 -63 -36 
0 0 -6 -52 -20 5 153 -69 -58 11 -15 0 86 5 -38 -7 
0 0 -7 -42 -2 13 176 -60 -37 55 8 13 75 32 -14 5 
0 0 -8 -44 -17 -2 146 -82 -55 37 -10 -2 69 39 -12 -10 
0 0 -17 -63 -36 -28 108 -119 -90 0 -39 -34 73 12 -25 -39 
0 0 -12 -66 -20 -20 129 -121 -84 5 -28 -29 67 -6 -25 -29 
0 0 -14 -56 11 0 151 -78 -47 19 -1 4 84 6 -3 4 
0 0 -20 -64 -1 -31 107 -92 -51 -12 -17 -24 81 -2 8 -24 
0 0 -26 -85 -33 -66 78 -147 -79 -45 -50 -77 33 -29 -23 -77 
0 0 -22 -86 -38 -56 91 -154 -89 -45 -47 -83 17 -38 -53 -77 
0 0 -34 -86 -30 -62 75 -158 -91 -46 -39 -87 35 -28 -38 -73 
0 0 -36 -92 -34 -76 52 -173 -89 -44 -55 -95 34 -29 -26 -83 
0 0 -29 -93 -36 -70 73 -155 -75 -23 -54 -87 22 -24 -33 -75 
0 0 -26 -93 -28 -69 96 -153 -57 -18 -27 -87 13 -30 -30 -53 
1 0 -26 -86 -29 -50 87 -143 -48 -21 -28 -72 24 -52 -29 -36 
1 0 -13 -73 -19 -37 96 -118 -33 -15 -28 -36 45 -46 -32 -18 
0 0 -9 -76 -12 -77 119 -151 -33 -44 0 -42 25 -41 -27 -18 
0 0 -12 -81 -26 -71 107 -138 -48 -51 -2 -43 19 -53 -31 -20 
1 0 -13 -71 -30 -17 87 -74 -47 -3 -24 -14 40 -45 -41 -6 
0 0 -24 -77 -25 -37 86 -118 -51 -13 -25 -31 15 -22 -28 -16 
0 0 -22 -82 -34 -81 74 -172 -71 -56 -31 -63 -10 -20 -20 -40 
0 0 -17 -66 -36 -47 50 -107 -64 -20 -41 -38 25 -10 -34 -31 
0 0 -9 -61 -26 -18 51 -82 -45 16 -39 -18 41 12 -23 -21 
0 0 -17 -74 -22 -41 69 -132 -50 -11 -27 -34 23 6 5 -30 
0 0 -20 -68 -34 -69 69 -129 -59 -29 -23 -37 24 -15 -19 -39 
0 0 -22 -58 -38 -63 63 -94 -56 -25 -30 -17 30 -16 -50 -29 
0 0 -3 -42 -6 -5 89 -49 -31 -10 -11 29 44 9 -16 13 
0 0 -5 -37 -1 25 104 -34 -15 1 4 40 47 3 -13 20 
0 0 -21 -60 -42 -21 56 -76 -49 -23 -31 -7 16 -42 -66 -26 
0 0 -28 -81 -54 -51 -23 -109 -76 -38 -56 -30 0 -45 -72 -45 
0 0 -22 -83 -44 -38 -94 -112 -67 -31 -32 -28 13 -25 -46 -29 
0 0 -26 -91 -49 -51 -153 -122 -63 -34 -29 -45 6 -33 -46 -38 
0 0 -28 -100 -41 -89 -194 -139 -66 -38 -52 -58 -18 -33 -36 -61 
0 0 -34 -99 -44 -102 -231 -146 -70 -33 -60 -62 -16 -24 -35 -71 
0 0 -41 -105 -66 -92 -262 -149 -76 -34 -59 -75 -11 -53 -60 -78 
0 0 -33 -103 -47 -83 -265 -135 -60 -19 -43 -63 -15 -63 -54 -62 
0 0 -33 -96 -25 -74 -280 -116 -45 -6 -33 -55 -9 -29 -40 -44 
0 0 -42 -97 -39 -68 -312 -112 -51 -30 -53 -76 2 -33 -58 -49 
0 0 -43 -108 -41 -74 -323 -111 -50 -41 -64 -74 1 -59 -63 -54 
0 0 -29 -108 -27 -75 -324 -114 -41 -20 -41 -54 -7 -46 -45 -45 
0 0 -36 -100 -26 -62 -336 -118 -39 -25 -30 -58 1 -24 -44 -40 
0 0 -37 -95 -35 -76 -356 -128 -41 -66 -46 -75 2 -44 -61 -48 
0 0 -36 -96 -37 -100 -367 -125 -40 -76 -46 -67 -6 -62 -64 -52 
0 0 -27 -88 -29 -81 -366 -107 -34 -45 -31 -38 3 -40 -43 -43 
0 0 -26 -83 -22 -51 -362 -92 -24 -44 -26 -35 27 -23 -27 -36 
0 0 -28 -93 -37 -61 -379 -92 -34 -60 -38 -67 27 -46 -44 -50 
0 0 -35 -102 -31 -72 -402 -101 -41 -26 -39 -78 16 -43 -43 -62 
0 0 -25 -89 3 -52 -401 -99 -22 19 -21 -55 22 -5 -9 -44 
0 0 -28 -93 -21 -59 -431 -110 -39 -7 -32 -71 13 -12 -26 -57 
0 0 -38 -105 -64 -93 -474 -135 -83 -34 -56 -100 -3 -34 -55 -90 
0 0 -35 -89 -33 -73 -451 -121 -61 -2 -30 -74 15 -5 -27 -70 
0 0 -22 -69 9 -26 -416 -87 -11 21 4 -36 37 20 -5 -30 
0 0 -23 -73 -13 -22 -439 -86 -21 5 -3 -41 24 8 -28 -40 
0 0 -32 -90 -32 -54 -457 -103 -53 3 -17 -59 11 6 -25 -69 
0 0 -32 -97 -17 -63 -447 -107 -53 16 -14 -61 13 11 4 -70 
0 0 -26 -91 -15 -41 -440 -86 -31 14 1 -54 28 16 -7 -49 
0 0 -25 -84 -34 -29 -435 -53 -32 10 -9 -49 32 14 -43 -37 
0 0 -37 -94 -43 -36 -429 -31 -62 5 -37 -33 12 1 -48 -30 
0 0 -23 -77 -21 -20 -394 8 -56 -3 -11 26 17 10 -12 14 
0 0 -11 -48 -10 1 -343 54 -23 -11 30 80 26 -1 -2 66 
0 0 -7 -40 -22 -4 -325 55 -34 -34 30 104 9 -33 -25 99 
0 0 -2 -35 -9 17 -308 90 -40 -46 48 160 21 -12 -11 139 
0 0 11 -24 15 47 -280 168 -3 -21 55 216 37 18 15 159 
0 0 0 -34 3 38 -290 175 -5 -5 22 202 5 -6 -7 147 
0 0 -3 -36 -14 35 -294 151 -40 -25 50 178 -13 -15 -23 147 
0 0 -7 -33 -18 46 -269 172 -45 -32 92 187 6 0 -13 135 
0 0 -2 -32 -8 43 -263 182 -19 -13 67 198 23 -7 -9 131 
0 0 3 -31 6 31 -258 152 -4 -8 70 181 29 3 -14 154 
0 0 -6 -50 -12 19 -253 126 -26 -5 82 141 13 5 -36 135 
0 0 -19 -74 -20 19 -307 98 -34 -1 22 121 13 -4 -32 103 
0 0 -15 -77 15 22 -350 61 0 -15 15 115 44 7 17 101 
0 0 -28 -98 3 -17 -339 21 -3 -23 66 35 18 -15 2 31 
0 0 -59 -137 -63 -77 -373 -32 -63 -19 24 -69 -31 -56 -73 -86 
0 0 -60 -136 -63 -78 -433 -57 -64 -27 -41 -86 -7 -37 -69 -109 
0 0 -48 -123 -22 -50 -424 -40 -21 -26 -20 -71 24 -4 -19 -88 
0 0 -42 -123 -30 -52 -413 -35 -29 -13 -6 -90 0 -27 -35 -95 
0 0 -37 -107 -36 -46 -436 -38 -38 -11 -8 -77 -7 -39 -41 -73 
0 0 -28 -83 -23 -24 -439 -34 -28 -15 4 -46 15 -9 -11 -45 
0 0 -34 -88 -27 -32 -449 -51 -33 -40 -21 -58 7 -14 -14 -55 
0 0 -29 -88 -22 -49 -465 -60 -25 -56 -31 -62 1 -38 -24 -47 
0 0 -31 -85 -7 -43 -456 -53 -14 -35 3 -44 10 -35 -8 -41 
0 0 -32 -96 -22 -49 -478 -80 -35 -35 -12 -57 -13 -42 -5 -75 
0 0 -34 -102 -38 -66 -516 -103 -43 -52 -44 -78 -43 -51 -23 -86 
0 0 -23 -85 -27 -59 -501 -91 -24 -28 -25 -74 -17 -11 -18 -70 
0 0 -31 -83 -23 -55 -495 -97 -32 0 -29 -79 2 10 -4 -92 
0 0 -43 -97 -41 -67 -519 -113 -59 -16 -60 -97 -27 -31 -22 -105 
0 0 -41 -91 -43 -55 -483 -94 -55 -17 -36 -85 -25 -27 -37 -67 
0 0 -27 -79 -29 -42 -436 -81 -46 4 -4 -57 4 14 -12 -46 
0 0 -29 -82 -37 -63 -473 -102 -61 5 -37 -63 -3 5 0 -66 
0 0 -33 -82 -42 -67 -502 -104 -62 3 -61 -66 -14 -1 -18 -69 
0 0 -23 -71 -21 -43 -463 -96 -36 5 -25 -59 0 22 -15 -54 
0 0 -27 -80 -19 -46 -446 -119 -24 -10 -22 -80 4 4 -22 -65 
0 0 -37 -99 -42 -68 -483 -127 -37 -36 -63 -97 -12 -36 -47 -88 
0 0 -38 -97 -36 -58 -511 -95 -48 -25 -57 -78 -15 -30 -39 -84 
0 0 -32 -85 -27 -50 -499 -88 -52 -17 -28 -74 -22 -25 -27 -73 
0 0 -34 -81 -28 -63 -459 -96 -34 -42 -27 -81 -29 -37 -36 -72 
0 0 -29 -79 -21 -65 -440 -91 -21 -40 -31 -72 -18 -25 -30 -65 
0 0 -41 -92 -23 -61 -475 -102 -38 -17 -40 -82 -17 -17 -25 -73 
0 0 -42 -98 -33 -63 -498 -113 -45 -29 -52 -99 -30 -45 -50 -89 
0 0 -38 -101 -43 -71 -480 -109 -43 -57 -50 -99 -39 -63 -66 -92 
0 0 -32 -103 -52 -80 -478 -115 -52 -49 -53 -94 -32 -47 -58 -82 
0 0 -37 -94 -49 -69 -489 -107 -54 -42 -65 -89 -28 -26 -43 -68 
0 0 -34 -80 -42 -52 -470 -87 -48 -65 -57 -82 -34 -26 -33 -59 
0 0 -34 -92 -52 -69 -454 -98 -56 -70 -47 -80 -35 -30 -35 -63 
0 0 -33 -100 -60 -101 -462 -121 -60 -55 -61 -82 -31 -39 -52 -59 
0 0 -39 -91 -52 -93 -458 -110 -48 -55 -63 -77 -29 -62 -59 -44 
0 0 -37 -88 -37 -61 -441 -77 -41 -65 -36 -62 -29 -58 -36 -37 
0 0 -30 -92 -32 -53 -428 -62 -40 -64 -19 -61 -22 -35 -23 -40 
0 0 -37 -98 -37 -68 -419 -69 -41 -69 -28 -73 -35 -50 -42 -40 
0 0 -33 -90 -17 -54 -401 -57 -17 -57 -22 -52 -40 -50 -29 -16 
0 0 -13 -75 20 -29 -380 -18 18 -13 11 -17 -6 4 16 18 
0 0 -18 -86 -9 -53 -395 -23 -11 -13 7 -47 -11 4 -9 -10 
0 0 -44 -111 -50 -83 -421 -43 -43 -44 -29 -84 -43 -40 -47 -62 
0 0 -29 -87 -9 -45 -395 18 -9 -35 -23 -38 -8 -24 -10 -38 
0 0 -18 -64 19 -9 -374 75 5 -18 1 1 28 7 7 -5 
1 0 -21 -73 -6 -14 -388 61 -3 -24 6 -17 8 -3 -22 -17 
0 0 -31 -79 -16 -1 -386 54 9 -28 -1 -22 -13 -27 -29 -27 
0 0 -36 -82 -38 -11 -412 53 -25 -49 -43 -32 -23 -53 -40 -41 
0 0 -47 -105 -76 -72 -456 22 -77 -75 -82 -70 -24 -71 -74 -72 
0 0 -39 -101 -65 -91 -435 23 -64 -56 -50 -71 -15 -55 -69 -61 
0 0 -38 -83 -46 -68 -411 37 -59 -32 -31 -60 -25 -35 -44 -40 
0 0 -36 -83 -57 -68 -429 25 -84 -41 -60 -74 -28 -33 -38 -55 
0 0 -28 -78 -38 -44 -409 57 -55 -35 -48 -50 -3 -24 -25 -52 
0 0 -23 -72 -17 -4 -381 92 -34 -26 -30 -15 -8 -16 -20 -36 
0 0 -34 -80 -26 -24 -397 65 -40 -44 -47 -33 -30 -17 -24 -47 
0 0 -37 -83 -31 -65 -385 44 -24 -42 -37 -52 -24 -25 -19 -49 
0 0 -31 -78 -28 -52 -357 74 -49 -45 -22 -35 -22 -41 -36 -36 
0 0 -35 -87 -33 -21 -366 94 -91 -75 -46 -32 -34 -39 -59 -36 
0 0 -38 -98 -37 -49 -383 65 -52 -64 -65 -55 -33 -40 -56 -49 
0 0 -36 -92 -22 -71 -357 60 3 -24 -48 -58 -11 -52 -46 -46 
0 0 -31 -79 -30 -54 -335 90 -39 -29 -32 -38 -3 -44 -49 -38 
0 0 -33 -80 -36 -49 -337 110 -48 -38 -27 -36 -3 -26 -33 -42 
0 0 -24 -80 -16 -49 -323 115 -1 -19 -31 -51 -5 -27 -13 -47 
0 0 -30 -79 -14 -34 -307 138 -49 -32 -35 -58 -14 -30 -22 -43 
0 0 -35 -82 -35 -44 -310 151 -57 -63 -34 -63 -22 -33 -34 -43 
0 0 -41 -99 -44 -67 -316 130 64 -65 -52 -81 -19 -42 -40 -68 
0 0 -49 -106 -42 -65 -319 132 105 -61 -77 -90 -19 -41 -57 -91 
0 0 -65 -106 -44 -54 -315 170 41 -58 -74 -90 -11 -39 -57 -90 
0 0 -51 -106 -51 -64 -308 185 29 -61 -68 -91 11 -47 -49 -83 
0 0 -41 -105 -68 -75 -308 177 25 -59 -98 -89 10 -42 -63 -93 
0 0 -34 -88 -52 -50 -280 226 -12 -36 -83 -57 6 -19 -56 -76 
0 0 -28 -77 -15 -15 -236 290 13 -24 -31 -33 27 -7 -28 -39 
0 0 -27 -83 -30 -33 -244 282 38 -46 -52 -47 37 -27 -41 -48 
0 0 -35 -83 -52 -58 -255 276 25 -48 -89 -57 29 -38 -68 -69 
0 0 -31 -75 -36 -33 -221 329 27 -14 -65 -39 32 -17 -58 -48 
0 0 -25 -78 -16 -20 -198 356 37 -27 -43 -28 45 -23 -47 -33 
0 0 -33 -88 -29 -44 -207 327 32 -80 -68 -45 32 -68 -69 -56 
0 0 -32 -85 -40 -52 -209 323 21 -90 -84 -45 14 -82 -82 -69 
0 0 -25 -77 -33 -33 -189 359 29 -58 -65 -27 25 -57 -65 -53 
0 0 -19 -78 -29 -29 -164 368 34 -60 -43 -27 31 -45 -40 -36 
0 0 -27 -86 -31 -35 -155 356 16 -85 -40 -34 22 -50 -32 -34 
0 0 -23 -80 -33 -24 -161 359 6 -77 -53 -27 22 -41 -30 -30 
0 0 -28 -82 -35 -38 -159 351 5 -78 -64 -27 21 -44 -32 -30 
0 0 -26 -82 -35 -49 -156 337 0 -80 -63 -30 19 -50 -26 -36 
0 0 -21 -65 -28 -20 -152 345 10 -45 -49 -3 24 -22 -1 -30 
0 0 -14 -61 -35 -14 -154 331 10 -42 -51 11 14 -31 -13 -20 
0 0 -23 -73 -39 -34 -151 304 2 -64 -61 -2 8 -62 -45 -19 
0 0 -20 -74 -29 -30 -139 300 11 -39 -55 -7 27 -30 -33 -17 
0 0 -18 -75 -34 -32 -141 290 11 -19 -60 -24 31 0 -13 -26 
0 0 -16 -74 -23 -37 -146 280 6 -38 -61 -35 20 -15 -4 -38 
0 0 -22 -77 -3 -21 -146 274 8 -30 -50 -22 12 -2 1 -45 
0 0 -34 -102 -34 -51 -171 230 -23 -33 -77 -48 -13 -12 -31 -74 
0 0 -32 -110 -67 -94 -190 188 -42 -52 -101 -88 -26 -53 -61 -98 
0 0 -16 -84 -37 -55 -150 199 3 -29 -64 -68 -10 -23 -29 -65 
0 0 -14 -79 -9 -28 -117 189 29 -29 -40 -39 -1 13 -6 -36 
0 0 -23 -102 -27 -72 -136 152 6 -60 -59 -64 -6 -20 -29 -45 
0 0 -14 -99 -38 -88 -150 164 -9 -51 -62 -79 -23 -39 -41 -48 
0 0 -17 -87 -30 -57 -146 179 -6 -23 -53 -54 -37 -9 -19 -43 
0 0 -24 -86 -27 -52 -144 151 6 -28 -68 -47 -30 0 -13 -38 
0 0 -22 -82 -16 -46 -128 162 25 -34 -55 -45 -3 -15 -31 -20 
0 0 2 -63 12 -5 -93 214 44 -24 -8 -3 22 -13 -27 5 
0 0 -8 -69 -2 -2 -100 186 36 -28 -22 -1 14 -20 -21 -13 
0 0 -25 -82 -44 -33 -140 132 12 -42 -70 -45 -12 -42 -44 -49 
0 0 -21 -78 -39 -35 -139 150 12 -53 -60 -45 -4 -34 -48 -49 
0 0 -7 -76 -19 -23 -118 166 21 -56 -42 -30 8 -17 -26 -39 
0 0 -16 -86 -28 -26 -126 144 23 -46 -61 -43 -6 -32 -22 -45 
0 0 -22 -88 -33 -51 -149 121 20 -34 -64 -44 -8 -47 -33 -52 
0 0 -27 -90 -34 -64 -154 96 7 -41 -56 -43 -9 -41 -44 -56 
0 0 -23 -96 -38 -44 -143 92 -4 -45 -57 -56 -22 -30 -43 -59 
0 0 -16 -92 -33 -22 -126 112 12 -29 -52 -46 -19 -20 -27 -52 
0 0 -11 -84 -26 -29 -123 104 35 -24 -52 -34 -7 -24 -26 -40 
0 0 -11 -80 -21 -38 -120 94 37 -45 -39 -33 -8 -36 -37 -30 
0 0 -8 -72 -3 -27 -90 124 37 -45 0 -8 0 -26 -33 -12 
0 0 -2 -67 1 -18 -74 132 43 -32 11 7 8 -11 -28 -6 
0 0 -6 -74 -22 -23 -97 88 34 -55 -23 -11 -16 -28 -36 -13 
1 0 -8 -74 -28 -38 -112 58 21 -87 -23 -23 -44 -39 -35 -7 
0 0 -3 -60 1 -17 -85 82 42 -68 25 0 -28 -16 -16 18 
0 0 1 -51 -4 -3 -81 92 47 -54 26 5 -19 -27 -31 16 
0 0 -11 -57 -29 -31 -108 65 26 -75 -6 -3 -43 -52 -35 0 
0 0 5 -45 11 -11 -79 80 61 -38 24 39 -23 4 36 48 
0 0 13 -34 41 35 -25 145 98 10 62 91 11 40 47 109 
0 0 4 -43 -4 23 -28 172 65 -33 29 105 -16 -33 -35 105 
0 0 -3 -52 -20 7 -34 173 51 -64 14 126 -35 -58 -42 104 
0 0 7 -50 12 27 -12 208 67 -31 36 162 -20 -3 20 148 
0 0 -2 -62 -2 17 -23 219 42 -41 9 157 -28 -18 4 143 
0 0 -6 -66 -33 -5 -30 196 20 -77 -11 151 -39 -57 -36 116 
0 0 -2 -56 -35 4 -3 202 30 -56 31 177 -25 -28 -30 138 
0 0 2 -57 -27 23 1 213 28 -23 50 181 -13 2 -11 162 
0 0 5 -53 -9 43 -26 193 40 -7 21 172 -2 14 11 141 
0 0 8 -41 4 50 -48 167 66 16 23 169 5 40 15 122 
0 0 5 -42 -6 32 -56 140 60 4 39 144 -2 33 1 121 
0 0 -4 -57 -28 11 -71 98 33 -38 15 111 -4 0 -5 98 
0 0 2 -55 -15 6 -84 64 41 -26 6 102 -3 5 2 71 
0 0 2 -60 -1 -10 -113 24 54 4 -1 72 -16 15 4 66 
0 0 -8 -70 -27 -26 -157 -18 26 -29 -22 24 -26 -8 -5 52 
0 0 -12 -61 -29 -5 -154 -12 25 -44 0 28 -10 -10 -2 34 
0 0 3 -45 -1 11 -122 -3 58 -4 39 49 1 14 5 35 
0 0 -2 -50 -6 7 -126 -28 54 -6 32 36 -8 12 1 43 
0 0 -3 -60 -28 -4 -156 -53 37 -25 7 9 -18 -5 -23 23 
0 0 -10 -70 -30 -26 -178 -68 45 -9 -9 -8 -24 -2 -35 3 
0 0 -10 -74 -23 -43 -204 -93 47 -14 -17 2 -19 4 -17 12 
0 0 -8 -72 -8 -23 -204 -99 53 -32 7 15 -8 -1 -7 18 
0 0 -8 -78 -8 -22 -170 -89 64 -32 15 -10 -14 -27 -26 -10 
0 0 -22 -88 -21 -44 -156 -95 58 -34 -13 -31 -29 -29 -32 -28 
0 0 -15 -79 -5 -30 -156 -107 61 -33 -3 -14 -28 -7 -13 0 
0 0 -9 -79 -6 -35 -171 -128 65 -42 10 -22 -30 -32 -17 -1 
0 0 -18 -86 -22 -66 -189 -138 54 -64 -14 -43 -33 -53 -26 -40 
0 0 -26 -85 -14 -57 -190 -132 57 -49 -32 -33 -23 -19 -17 -53 
0 0 -22 -83 -15 -38 -202 -141 63 -22 -25 -35 -20 -10 -23 -43 
0 0 -23 -83 -35 -64 -220 -155 53 -31 -25 -50 -25 -35 -31 -46 
0 0 -33 -85 -36 -77 -212 -149 49 -36 -29 -39 -23 -30 -29 -61 
0 0 -36 -92 -37 -53 -210 -155 40 -37 -37 -49 -26 -27 -42 -76 
0 0 -28 -85 -32 -44 -214 -164 40 -46 -36 -63 -24 -31 -30 -69 
0 0 -15 -74 -17 -55 -217 -166 47 -57 -28 -57 -32 -28 5 -57 
0 0 -33 -100 -39 -79 -239 -187 28 -81 -34 -79 -52 -54 -15 -79 
0 0 -35 -106 -55 -75 -240 -187 13 -76 -35 -99 -43 -47 -35 -91 
0 0 -27 -84 -31 -44 -216 -169 27 -30 -28 -76 -19 -6 -10 -73 
0 0 -24 -80 -22 -44 -217 -172 40 -13 -30 -63 -17 -20 -17 -70 
0 0 -32 -88 -29 -47 -205 -162 48 -24 -16 -66 -14 -42 -40 -70 
0 0 -21 -80 -21 -32 -186 -148 57 -32 0 -57 -7 -37 -33 -55 
0 0 -19 -79 -7 -30 -198 -159 59 -40 -3 -47 -21 -32 -21 -47 
0 0 -15 -81 1 -36 -197 -161 63 -21 1 -33 -31 -20 -12 -42 
0 0 -19 -81 -3 -45 -183 -156 68 -4 -1 -30 -25 -13 -5 -54 
0 0 -32 -97 -33 -63 -218 -186 42 -39 -31 -65 -36 -47 -30 -92 
0 0 -29 -94 -38 -47 -221 -186 34 -60 -29 -69 -28 -50 -39 -85 
0 0 -11 -68 3 -10 -155 -133 65 -31 7 -11 8 -1 -1 -26 
0 0 -13 -68 11 -28 -139 -121 65 -14 6 11 4 -3 0 -13 
0 0 -22 -86 -19 -41 -177 -147 39 -30 -1 -16 -25 -37 -30 -43 
0 0 -24 -79 -24 -14 -190 -152 34 -42 1 -35 -21 -27 -24 -54 
0 0 -32 -70 -20 -16 -184 -148 36 -27 -19 -34 -11 -4 -14 -48 
0 0 -27 -73 -33 -31 -180 -147 36 -4 -30 -17 -12 -10 -37 -43 
0 0 -27 -74 -30 -5 -179 -141 43 5 -13 -9 0 -3 -39 -48 
0 0 -34 -73 -20 7 -184 -146 43 1 -18 -29 0 3 -19 -60 
0 0 -40 -82 -35 -27 -194 -159 30 -8 -36 -35 -9 -26 -32 -62 
0 0 -23 -70 -38 -29 -178 -142 31 -7 -18 3 2 -16 -31 -33 
0 0 -22 -55 -16 10 -158 -119 42 10 8 12 8 25 3 -16 
0 0 -25 -65 -16 16 -160 -120 41 11 9 -25 2 13 9 -30 
0 0 -32 -84 -30 -8 -178 -132 26 -11 -5 -41 -1 -17 -9 -52 
0 0 -27 -76 -28 -5 -182 -143 21 -12 -12 -25 -18 -4 -4 -51 
0 0 -25 -73 -22 3 -173 -147 25 -10 -9 -13 -34 8 1 -31 
0 0 -22 -82 -30 -25 -177 -162 9 -45 -16 -22 -30 -16 -17 -16 
0 0 -27 -80 -33 -45 -187 -185 2 -55 -26 -35 -25 -33 -27 -29 
0 0 -24 -71 -26 -30 -190 -196 11 -12 -28 -31 -30 -22 -26 -44 
0 0 -20 -71 -35 -23 -197 -195 -3 -7 -37 -24 -38 -13 -35 -43 
0 0 -13 -62 -32 -21 -188 -177 -3 -33 -26 -3 -34 -6 -23 -26 
0 0 1 -42 -2 -2 -150 -148 35 -24 18 36 -19 9 6 11 
0 0 -4 -47 0 -4 -156 -165 33 -23 23 33 -27 -4 -12 16 
0 0 -15 -70 -34 -40 -206 -214 -10 -50 -26 -12 -57 -33 -42 -21 
0 0 -12 -74 -32 -49 -205 -214 -9 -46 -33 -19 -63 -30 -28 -30 
1 0 -5 -62 -12 -33 -184 -197 15 -26 -11 1 -46 -22 -23 -13 
1 0 -20 -62 -14 -28 -195 -202 15 -22 -16 -6 -28 -3 -28 -23 
1 0 -27 -70 -33 -32 -218 -205 -1 -22 -34 -31 -26 5 -17 -48 
1 0 -35 -87 -54 -41 -229 -212 -17 -30 -45 -58 -40 -36 -28 -63 
1 0 -32 -92 -57 -50 -220 -228 -26 -41 -47 -69 -43 -63 -48 -63 
0 0 -29 -78 -29 -42 -186 -222 -2 -32 -31 -47 -33 -30 -28 -46 
0 0 -27 -66 -13 -24 -163 -195 25 -21 -12 -30 -26 1 -12 -35 
0 0 -40 -84 -27 -35 -185 -203 8 -30 -37 -54 -30 -8 -29 -54 
0 0 -41 -99 -40 -65 -219 -237 -19 -47 -66 -83 -50 -29 -39 -81 
0 0 -40 -96 -34 -74 -213 -237 -18 -35 -49 -85 -55 -21 -25 -84 
0 0 -34 -96 -29 -67 -187 -214 -9 -23 -40 -79 -37 -15 -22 -61 
0 0 -36 -95 -39 -53 -189 -215 -14 -35 -54 -69 -37 -29 -38 -59 
0 0 -30 -80 -33 -31 -184 -203 -6 -39 -43 -31 -41 -14 -25 -58 
0 0 -16 -58 -2 -13 -143 -163 24 -26 -5 5 -20 6 6 -19 
0 0 -16 -58 2 -19 -132 -162 26 -24 -2 1 -17 -28 -6 1 
0 0 -26 -71 -21 -33 -162 -178 3 -38 -29 -11 -37 -48 -35 -26 
0 0 -31 -76 -29 -30 -175 -169 -9 -36 -38 -16 -31 -16 -29 -41 
0 0 -32 -83 -30 -35 -185 -187 -12 -39 -41 -43 -27 -11 -28 -49 
0 0 -39 -98 -40 -63 -204 -219 -17 -54 -56 -68 -49 -31 -37 -72 
0 0 -37 -98 -36 -75 -203 -214 -13 -49 -60 -62 -56 -37 -27 -74 
0 0 -42 -88 -25 -54 -191 -200 -8 -37 -42 -49 -50 -25 -20 -55 
0 0 -39 -88 -39 -56 -197 -213 -28 -41 -45 -58 -61 -24 -32 -54 
0 0 -34 -87 -35 -62 -178 -200 -16 -41 -39 -46 -50 -31 -24 -44 
0 0 -21 -68 -2 -33 -138 -157 27 -24 -4 -10 -22 -6 1 -16 
0 0 -35 -82 -19 -39 -165 -177 10 -30 -21 -34 -43 -5 -11 -34 
0 0 -45 -108 -62 -84 -213 -229 -43 -65 -71 -84 -75 -51 -41 -71 
0 0 -40 -98 -47 -82 -194 -213 -27 -69 -51 -65 -54 -55 -34 -62 
0 0 -29 -77 -17 -44 -167 -172 13 -27 -21 -23 -28 -6 -20 -43 
0 0 -41 -92 -31 -47 -190 -187 -9 -17 -56 -41 -43 -9 -35 -61 
0 0 -43 -101 -39 -51 -193 -207 -29 -59 -66 -60 -54 -46 -39 -63 
0 0 -31 -80 -24 -33 -155 -182 -1 -62 -31 -34 -37 -34 -31 -36 
0 0 -34 -83 -29 -49 -153 -169 0 -43 -31 -26 -28 -24 -48 -42 
0 0 -44 -97 -36 -72 -178 -177 -29 -67 -44 -41 -35 -33 -58 -69 
0 0 -45 -97 -37 -65 -181 -185 -33 -64 -39 -44 -48 -32 -47 -80 
0 0 -37 -97 -38 -55 -170 -191 -15 -29 -40 -45 -66 -31 -40 -68 
0 0 -27 -99 -14 -55 -150 -172 9 -34 -30 -35 -57 -23 -14 -47 
0 0 -28 -95 -6 -58 -146 -166 2 -55 -24 -28 -43 -15 -8 -46 
0 0 -40 -92 -27 -62 -167 -190 -21 -40 -36 -45 -55 -25 -31 -61 
0 0 -28 -86 -24 -52 -170 -195 -12 -27 -32 -50 -52 -25 -25 -54 
0 0 -29 -90 -23 -49 -161 -179 -8 -44 -29 -42 -39 -16 -22 -47 
0 0 -37 -94 -47 -55 -171 -173 -33 -44 -35 -43 -49 -20 -50 -54 
0 0 -32 -84 -37 -32 -172 -166 -26 -24 -37 -35 -41 -3 -39 -44 
0 0 -25 -77 -17 -29 -173 -175 -13 -18 -48 -30 -22 14 -10 -44 
0 0 -43 -88 -39 -70 -193 -192 -37 -13 -51 -45 -37 -2 -26 -73 
0 0 -29 -78 -39 -56 -183 -168 -37 11 -21 -35 -38 16 -22 -55 
0 0 -24 -68 -22 -25 -173 -159 -22 5 -20 -26 -23 35 13 -33 
0 0 -35 -77 -31 -43 -188 -173 -32 -29 -39 -36 -38 -2 4 -56 
0 0 -28 -73 -24 -31 -172 -150 -23 -23 -15 -16 -37 -7 -26 -49 
0 0 -14 -61 -15 -2 -157 -131 -17 -19 -7 -3 -24 9 -38 -17 
0 0 -27 -66 -30 -21 -167 -134 -32 -40 -33 -9 -31 -13 -36 -25 
0 0 -33 -74 -33 -30 -163 -115 -33 -34 -29 12 -41 -18 -29 -33 
0 0 -19 -64 -20 -8 -140 -83 -24 -18 -17 39 -32 -2 -27 13 
0 0 -15 -52 -21 2 -121 -47 -26 -26 -35 66 -28 -1 -14 56 
0 0 -12 -43 -19 21 -83 8 -26 -29 -16 126 -30 17 15 78 
0 0 -6 -40 0 40 -29 46 -8 -24 36 174 -23 27 19 114 
0 0 -7 -41 -4 24 -27 39 -7 -31 22 169 -33 -15 -9 129 
0 0 -19 -48 -24 19 -49 39 -27 -35 -11 160 -45 -27 -20 110 
0 0 -10 -46 -22 32 -41 64 -33 -36 9 178 -35 18 -5 119 
0 0 -5 -30 -9 36 -21 65 -21 -16 42 191 -22 25 -8 150 
0 0 -6 -24 -10 39 -14 42 -23 6 43 168 -26 0 -14 139 
0 0 -11 -42 -7 34 -24 32 -28 -18 20 146 -35 5 6 127 
0 0 -8 -54 4 10 -60 11 -20 -64 -2 143 -45 1 6 128 
0 0 -21 -63 -9 -12 -72 -23 -24 -60 5 111 -56 -33 -37 79 
0 0 -28 -74 -36 -14 -55 -43 -34 -52 -2 61 -57 -56 -67 35 
0 0 -29 -75 -27 -13 -92 -53 -16 -69 -34 57 -42 -36 -43 49 
0 0 -22 -66 -2 -7 -117 -54 1 -44 -26 60 -17 -6 -16 44 
0 0 -30 -75 -24 -17 -101 -73 -37 -26 -17 10 -36 -15 -32 -13 
0 0 -33 -82 -50 -35 -111 -107 -61 -49 -41 -17 -62 -30 -43 -34 
0 0 -16 -61 -10 -9 -113 -97 -13 -21 -28 21 -22 0 -6 8 
0 0 -7 -53 13 12 -106 -86 2 27 -14 28 5 32 15 19 
0 0 -26 -82 -33 -37 -148 -143 -54 -18 -54 -28 -48 -6 -34 -28 
0 0 -40 -105 -60 -79 -175 -182 -75 -81 -71 -65 -81 -54 -76 -58 
0 0 -27 -92 -40 -65 -153 -160 -49 -56 -45 -62 -52 -36 -59 -53 
0 0 -17 -77 -14 -39 -130 -142 -31 -22 -25 -39 -31 -6 -32 -32 
0 0 -7 -64 5 -15 -106 -127 -14 -31 -9 -4 -25 -14 -27 -4 
0 0 -17 -61 1 -13 -111 -117 -7 -38 -12 2 -24 -37 -35 -2 
0 0 -21 -61 -25 -25 -138 -121 -25 -14 -22 -19 -28 -24 -24 -22 
0 0 -21 -64 -33 -12 -123 -116 -35 12 -9 -22 -24 9 -2 -15 
0 0 -18 -65 -35 -12 -110 -117 -42 -14 -13 -17 -32 -1 -23 -8 
0 0 -24 -67 -40 -44 -124 -127 -45 -46 -35 -26 -32 -25 -44 -18 
0 0 -13 -58 -30 -39 -122 -118 -36 -21 -20 -17 -13 -15 -16 -14 
0 0 -11 -53 -26 0 -115 -105 -39 13 -4 7 -11 10 -5 -8 
0 0 -13 -52 -34 4 -124 -108 -51 5 -28 15 -31 18 -34 -10 
0 0 -15 -47 -21 -7 -113 -106 -42 -3 -24 16 -35 25 -27 -10 
0 0 -5 -40 8 1 -87 -85 -21 25 15 27 -16 41 11 3 
0 0 -3 -49 4 11 -86 -78 -22 30 14 26 -6 34 9 4 
0 0 -10 -65 -24 7 -113 -101 -46 -13 -28 -2 -21 8 -24 -15 
1 0 -22 -68 -37 -23 -126 -129 -59 -31 -40 -27 -34 -10 -36 -32 
0 0 -27 -70 -34 -57 -121 -136 -57 -13 -22 -31 -31 -17 -23 -32 
0 0 -25 -78 -42 -58 -126 -133 -68 -34 -27 -28 -38 -41 -31 -40 
0 0 -22 -76 -39 -28 -123 -127 -66 -58 -38 -22 -44 -49 -45 -48 
1 0 -18 -61 -10 -17 -94 -114 -36 -22 -21 -16 -29 -14 -19 -26 
1 0 -28 -72 -11 -42 -100 -128 -37 -9 -20 -34 -34 -1 6 -25 
0 0 -27 -82 -30 -55 -129 -154 -60 -39 -40 -59 -47 -15 0 -44 
0 0 -21 -63 -4 -19 -103 -124 -31 -28 -15 -32 -21 -2 -4 -22 
0 0 -10 -44 19 10 -73 -85 -9 0 18 10 7 12 -5 14 
0 0 -16 -55 -6 -10 -90 -98 -39 -21 -3 -5 -3 1 -17 -2 
0 0 -15 -64 -23 -18 -100 -115 -56 -50 -21 -36 -26 -10 -26 -35 
0 0 -21 -67 -16 -6 -97 -109 -52 -38 -16 -32 -35 -1 -8 -31 
0 0 -21 -71 -20 -12 -105 -106 -54 -25 -17 -25 -28 3 0 -16 
0 0 -23 -76 -31 -22 -110 -111 -55 -45 -24 -36 -34 -24 -27 -28 
0 0 -19 -75 -27 -24 -111 -119 -54 -57 -21 -35 -47 -39 -35 -43 
0 0 -24 -71 -13 -23 -102 -122 -51 -36 -15 -28 -37 -14 -11 -31 
0 0 -26 -71 -18 -17 -87 -121 -46 -28 -14 -36 -27 -18 -15 -24 
0 0 -27 -75 -29 -32 -91 -123 -43 -40 -14 -47 -39 -45 -39 -36 
0 0 -19 -64 -8 -33 -86 -109 -30 -21 -1 -30 -27 -13 -22 -24 
0 0 -22 -48 5 0 -72 -84 -22 -3 9 -5 -4 12 -5 -5 
0 0 -34 -59 -24 0 -86 -90 -49 -23 -11 -15 -15 -18 -25 -26 
0 0 -34 -74 -32 -20 -100 -100 -68 -35 -25 -34 -35 -32 -33 -49 
0 0 -31 -71 -1 -11 -90 -82 -49 -24 -15 -22 -27 -19 -22 -39 
0 0 -30 -66 1 -8 -97 -90 -44 -32 -25 -18 -24 -10 -8 -32 
0 0 -38 -79 -24 -35 -124 -125 -60 -51 -41 -47 -50 -22 -4 -56 
0 0 -39 -87 -35 -65 -133 -137 -70 -51 -33 -69 -64 -40 -31 -73 
0 0 -43 -82 -30 -69 -121 -120 -66 -45 -30 -60 -48 -38 -56 -57 
0 0 -32 -78 -34 -45 -121 -120 -67 -62 -48 -55 -39 -36 -45 -53 
0 0 -31 -84 -35 -34 -124 -132 -71 -65 -49 -64 -40 -31 -24 -59 
0 0 -26 -75 -13 -47 -107 -113 -70 -35 -33 -55 -32 -10 -13 -32 
0 0 -27 -67 -10 -38 -92 -84 -74 -23 -29 -37 -24 -10 -14 -15 
0 0 -20 -70 -33 -17 -90 -85 -75 -38 -28 -30 -27 -37 -27 -22 
0 0 -25 -75 -35 -41 -89 -109 -73 -41 -23 -35 -38 -38 -36 -20 
0 0 -29 -78 -30 -76 -94 -124 -83 -40 -29 -40 -56 -30 -33 -18 
0 0 -19 -73 -31 -53 -83 -103 -77 -43 -17 -23 -48 -24 -21 -9 
0 0 -4 -58 -8 -14 -60 -72 -43 -28 3 4 -24 0 2 21 
0 0 -16 -60 0 -23 -75 -83 -44 -16 -16 2 -32 5 10 13 
0 0 -26 -67 -19 -38 -99 -97 -72 -23 -36 -10 -47 -7 -1 -14 
0 0 -15 -56 -21 -24 -93 -85 -73 -23 -27 -8 -33 8 6 -12 
0 0 -12 -55 -23 -24 -98 -95 -74 -25 -28 -14 -25 8 6 -11 
0 0 -19 -60 -28 -36 -104 -105 -76 -36 -31 -15 -28 -25 -8 -18 
0 0 -22 -56 -1 -30 -88 -84 -53 -35 -20 -8 -27 -27 4 -16 
0 0 -12 -53 4 -22 -81 -77 -46 -25 -26 -12 -27 -2 4 -12 
0 0 -16 -58 -25 -23 -85 -91 -61 -25 -35 -21 -29 1 -26 -17 
0 0 -19 -56 -18 -27 -77 -89 -54 -33 -18 -20 -28 -13 -24 -28 
0 0 -25 -58 2 -26 -76 -83 -44 -41 -7 -25 -30 -9 6 -42 
0 0 -17 -58 -8 -22 -85 -89 -54 -48 -11 -30 -33 -8 1 -43 
0 0 -17 -60 -7 -17 -79 -90 -53 -38 -11 -27 -29 -12 -11 -38 
0 0 -20 -66 -1 -23 -81 -95 -53 -28 -20 -37 -32 -13 0 -48 
0 0 -33 -75 -11 -41 -91 -99 -61 -41 -36 -57 -38 -21 -2 -58 
0 0 -28 -77 -11 -50 -80 -87 -53 -56 -30 -51 -34 -30 -13 -53 
0 0 -20 -81 -8 -45 -70 -88 -43 -64 -19 -46 -39 -45 -24 -49 
0 0 -13 -74 6 -30 -55 -90 -23 -62 -12 -53 -35 -43 -17 -36 
0 0 -14 -65 26 -19 -32 -68 -2 -37 7 -33 -12 -5 8 -11 
0 0 -16 -70 7 -21 -43 -63 -26 -31 2 -15 -14 5 2 -14 
0 0 -28 -90 -44 -43 -78 -104 -73 -68 -33 -54 -50 -47 -40 -54 
0 0 -36 -95 -43 -59 -74 -116 -64 -79 -44 -71 -51 -68 -41 -65 
0 0 -31 -81 -3 -47 -52 -78 -27 -46 -27 -40 -23 -30 -5 -41 
0 0 -30 -83 -14 -49 -60 -75 -41 -49 -25 -45 -39 -35 -12 -42 
0 0 -32 -92 -48 -64 -68 -105 -70 -88 -36 -74 -69 -73 -42 -64 
0 0 -38 -92 -43 -60 -72 -98 -71 -84 -40 -73 -56 -66 -36 -62 
0 0 -35 -79 -30 -45 -70 -71 -56 -45 -35 -54 -36 -29 -16 -47 
0 0 -31 -70 -26 -28 -44 -57 -35 -23 -18 -22 -18 -1 -8 -36 
0 0 -18 -69 -21 -9 -28 -48 -32 -37 -13 -1 -11 -1 -8 -30 
1 0 -18 -69 -12 5 -35 -30 -40 -34 -15 1 -17 -15 -8 -23 
0 0 -14 -65 -8 3 -32 -21 -39 -6 -7 6 -12 -11 -8 -7 
0 0 -18 -66 -18 -5 -31 -35 -41 -4 -9 1 -1 1 -4 -7 
0 0 -19 -67 -31 -13 -52 -50 -62 -21 -23 -17 -11 -10 3 -20 
0 0 -26 -68 -39 -13 -63 -48 -74 -30 -36 -19 -27 -22 -4 -29 
0 0 -23 -71 -44 -23 -59 -55 -76 -34 -45 -16 -32 -16 -20 -36 
0 0 -26 -78 -47 -41 -64 -76 -82 -44 -45 -30 -38 -27 -16 -45 
0 0 -22 -70 -30 -17 -47 -61 -58 -34 -12 -13 -24 -24 3 -26 
0 0 -17 -55 -9 14 -12 -32 -27 -6 14 27 -5 11 2 0 
0 0 -20 -58 -19 -11 -17 -48 -38 -8 -11 21 -24 3 -23 -15 
0 0 -27 -78 -34 -45 -53 -74 -58 -33 -40 -22 -47 -46 -32 -47 
0 0 -27 -88 -31 -39 -59 -64 -52 -41 -31 -40 -33 -57 -23 -50 
0 0 -25 -77 -23 -24 -36 -45 -39 -34 -13 -29 -23 -33 -31 -30 
0 0 -29 -78 -33 -43 -42 -59 -51 -47 -23 -29 -47 -36 -53 -43 
0 0 -30 -84 -48 -59 -66 -79 -74 -64 -41 -40 -58 -51 -54 -71 
1 0 -28 -80 -38 -28 -53 -66 -66 -58 -30 -30 -37 -40 -33 -59 
1 0 -17 -69 -21 7 -28 -34 -44 -37 -5 -6 -15 -13 -26 -34 
0 0 -21 -69 -22 -3 -41 -33 -43 -29 -6 -4 -20 -2 -27 -48 
0 0 -22 -75 -35 -33 -64 -60 -62 -56 -33 -24 -38 -35 -27 -76 
1 0 -32 -79 -39 -38 -63 -65 -75 -70 -47 -43 -40 -65 -31 -82 
1 0 -27 -74 -33 -27 -59 -59 -76 -63 -40 -44 -33 -46 -35 -71 
1 0 -20 -73 -26 -21 -62 -63 -63 -61 -28 -34 -28 -21 -25 -62 
1 0 -15 -70 -25 -31 -59 -64 -56 -45 -27 -21 -31 -23 -16 -53 
1 0 -26 -72 -28 -38 -53 -55 -63 -35 -37 -18 -28 -33 -18 -50 
0 0 -28 -82 -32 -30 -60 -61 -66 -65 -45 -35 -28 -45 -30 -62 
0 0 -26 -87 -38 -38 -68 -76 -66 -79 -40 -52 -45 -43 -38 -70 
0 0 -20 -81 -35 -50 -58 -71 -63 -47 -26 -41 -58 -28 -28 -52 
0 0 -17 -76 -30 -31 -40 -48 -54 -40 -19 -19 -45 -30 -26 -31 
0 0 -15 -67 -29 0 -28 -32 -49 -60 -14 -6 -28 -37 -49 -16 
0 0 -5 -51 -25 0 -12 -13 -40 -46 -1 21 -22 -17 -53 11 
0 0 4 -45 -21 0 23 44 -24 -17 7 71 -12 2 -29 49 
0 0 4 -41 -18 31 58 101 -27 -20 10 110 -6 0 -14 84 
0 0 4 -31 -3 66 91 133 -27 -29 32 144 -2 -2 -12 116 
0 0 12 -21 2 66 102 155 -25 -27 42 174 1 5 0 136 
0 0 1 -25 -18 43 77 149 -44 -30 15 161 -12 -2 -5 136 
0 0 -9 -38 -36 27 51 124 -68 -46 -6 135 -27 -39 -32 114 
0 0 -17 -47 -37 23 62 125 -65 -59 -4 143 -30 -51 -39 85 
0 0 -9 -44 -30 21 85 134 -59 -63 1 142 -28 -25 -23 81 
0 0 -9 -47 -21 24 73 119 -63 -56 0 119 -19 -16 0 92 
0 0 3 -43 -8 37 44 102 -53 -45 -13 123 -9 -17 9 96 
0 0 5 -41 -3 36 26 87 -39 -26 -11 123 -18 -5 -2 88 
0 0 -1 -59 -21 3 11 48 -53 -24 4 72 -34 -11 -14 60 
0 0 -11 -73 -41 -18 -2 7 -75 -46 -4 30 -34 -26 -14 20 
0 0 1 -52 -18 4 19 10 -52 -41 -5 43 -17 -4 4 26 
0 0 1 -49 7 9 35 27 -24 -25 11 47 -16 1 4 39 
0 0 -16 -76 -20 -25 -7 -2 -49 -43 -25 13 -32 -30 -19 -1 
0 0 -21 -79 -45 -38 -52 -49 -77 -49 -72 -16 -39 -22 -11 -33 
0 0 -7 -63 -15 -14 -39 -37 -52 -22 -38 -5 -24 12 9 -6 
0 0 -3 -65 6 -8 -19 -7 -25 -10 -1 6 -12 6 -17 5 
0 0 -17 -76 -17 -25 -38 -26 -42 -20 -20 -22 -25 -15 -36 -31 
0 0 -24 -77 -37 -38 -63 -58 -63 -28 -42 -49 -39 -13 -10 -53 
0 0 -30 -81 -35 -49 -73 -61 -64 -39 -45 -46 -38 -20 -11 -51 
0 0 -29 -81 -26 -44 -59 -46 -51 -36 -45 -35 -27 -25 -23 -52 
0 0 -29 -73 -17 -23 -28 -28 -35 -13 -36 -30 -24 5 1 -49 
0 0 -23 -73 -25 -42 -33 -41 -47 -22 -33 -44 -31 4 0 -49 
0 0 -25 -80 -43 -66 -58 -69 -67 -59 -41 -61 -39 -37 -38 -58 
0 0 -10 -63 -29 -30 -33 -52 -50 -48 -21 -36 -36 -30 -45 -35 
0 0 -3 -44 -2 2 5 -25 -18 -18 5 0 -25 -6 -26 2 
0 0 1 -46 -1 -23 -12 -42 -22 -38 -9 -12 -27 -21 -29 -9 
0 0 -8 -56 -12 -47 -45 -74 -41 -53 -28 -35 -34 -15 -33 -43 
0 0 -14 -60 -17 -53 -54 -93 -42 -28 -33 -48 -34 9 -10 -55 
0 0 -20 -66 -17 -61 -54 -85 -38 -11 -35 -69 -36 -6 -6 -59 
0 0 -19 -73 -27 -63 -61 -76 -53 -20 -36 -81 -50 -25 -27 -73 
0 0 -24 -76 -36 -56 -68 -91 -67 -35 -40 -79 -57 -11 -26 -84 
0 0 -22 -70 -19 -40 -48 -81 -41 -27 -28 -64 -32 2 -13 -66 
0 0 -14 -61 0 -19 -22 -46 -15 5 -13 -45 -12 7 -22 -43 
0 0 -21 -74 -15 -31 -37 -52 -25 -5 -34 -61 -22 -18 -43 -58 
0 0 -23 -77 -31 -42 -46 -60 -27 -43 -42 -75 -25 -43 -41 -63 
0 0 -17 -59 -26 -15 -22 -32 -20 -33 -13 -48 -21 -37 -36 -44 
0 0 -15 -60 -33 -9 -25 -25 -33 -31 -17 -43 -37 -42 -56 -58 
0 0 -23 -80 -34 -25 -38 -40 -37 -56 -45 -62 -40 -48 -58 -81 
0 0 -22 -80 -26 -35 -30 -55 -27 -53 -45 -65 -31 -34 -34 -79 
0 0 -29 -84 -27 -41 -30 -59 -27 -44 -40 -65 -33 -31 -24 -78 
0 0 -20 -84 -19 -26 -27 -30 -20 -42 -37 -55 -22 -28 -19 -63 
0 0 -9 -64 9 5 1 4 -8 -15 -17 -25 0 5 8 -33 
0 0 -8 -58 -1 -15 -1 -16 -27 -15 -17 -34 -12 7 6 -44 
0 0 -25 -81 -28 -46 -30 -51 -41 -34 -31 -71 -35 -17 -17 -86 
0 0 -22 -82 -18 -30 -33 -54 -25 -20 -31 -77 -34 -20 -16 -87 
0 0 -17 -75 -13 -28 -24 -57 -27 -21 -37 -71 -30 -18 -24 -71 
0 0 -18 -80 -34 -45 -25 -57 -46 -36 -43 -64 -34 -9 -34 -77 
0 0 -28 -87 -39 -37 -39 -50 -50 -22 -46 -63 -35 -20 -17 -86 
0 0 -21 -80 -28 -21 -47 -43 -44 -5 -55 -60 -29 -42 -14 -74 
0 0 -12 -69 -28 -17 -36 -26 -36 0 -51 -44 -22 -25 -33 -67 
0 0 -14 -66 -25 -9 -22 -11 -26 0 -24 -39 -18 -11 -42 -67 
0 0 -26 -79 -24 2 -29 -25 -30 -5 -30 -48 -15 -29 -33 -77 
0 0 -34 -88 -33 -2 -42 -44 -46 -7 -61 -53 -20 -27 -19 -101 
0 0 -21 -75 -28 -5 -35 -19 -43 -2 -51 -44 -18 1 -3 -101 
0 0 -14 -69 -20 6 -23 1 -28 1 -28 -42 -8 4 -5 -73 
0 0 -19 -74 -24 -2 -26 -19 -33 -4 -33 -59 -18 -16 -21 -72 
0 0 -27 -80 -27 -25 -30 -37 -52 -20 -49 -72 -29 -12 -17 -93 
0 0 -14 -70 -25 -20 -15 -31 -49 -20 -44 -52 -18 9 -4 -80 
0 0 -14 -61 -27 -13 -8 -25 -33 3 -32 -33 -14 2 -6 -59 
0 0 -14 -62 -24 -29 -11 -31 -32 0 -36 -41 -21 -23 -13 -65 
0 0 -17 -74 -19 -35 -13 -35 -33 -15 -37 -50 -21 -15 -14 -77 
0 0 -14 -76 -10 -29 -22 -49 -32 -5 -31 -54 -25 -12 -13 -77 
0 0 -22 -76 -4 -36 -28 -59 -29 -3 -29 -55 -23 -40 -19 -74 
0 0 -21 -84 -15 -57 -28 -63 -30 -29 -47 -67 -36 -50 -23 -78 
0 0 -21 -93 -34 -66 -35 -68 -38 -43 -68 -83 -67 -45 -29 -82 
0 0 -18 -79 -35 -48 -30 -63 -40 -31 -56 -69 -54 -42 -34 -72 
0 0 -24 -66 -31 -31 -17 -51 -34 -21 -34 -49 -25 -29 -33 -67 
0 0 -28 -76 -39 -56 -33 -59 -48 -33 -48 -67 -51 -29 -35 -77 
0 0 -27 -84 -37 -81 -51 -82 -63 -49 -76 -86 -78 -35 -31 -88 
0 0 -20 -78 -27 -57 -42 -79 -44 -45 -65 -68 -47 -35 -33 -83 
0 0 -16 -77 -26 -35 -30 -59 -23 -32 -46 -53 -31 -25 -38 -72 
0 0 -21 -84 -24 -49 -37 -55 -26 -26 -54 -61 -51 -28 -32 -68 
0 0 -23 -88 -30 -62 -54 -72 -42 -32 -66 -78 -53 -41 -30 -85 
0 0 -13 -77 -30 -40 -41 -59 -37 -11 -41 -65 -33 -21 -15 -84 
0 0 2 -53 -12 -6 0 -21 -19 2 -3 -24 -20 -3 1 -45 
0 0 -6 -53 -5 -1 12 -15 -22 -35 0 -15 -26 -26 -14 -20 
0 0 -1 -57 -11 -25 1 -32 -17 -52 -2 -24 -32 -39 -26 -19 
0 0 3 -50 2 -35 4 -33 -3 -34 6 -20 -33 -20 -1 -23 
0 0 -1 -55 11 -14 2 -20 -19 -30 -5 -13 -35 -23 -3 -35 
0 0 -16 -73 -15 -12 -10 -11 -40 -39 -23 -24 -35 -38 -43 -55 
0 0 -4 -59 -25 -22 -9 -4 -32 -24 -19 -25 -32 -20 -37 -45 
0 0 4 -43 -13 -4 -2 0 -26 -5 -7 -10 -26 3 -10 -24 
0 0 3 -49 -7 6 4 3 -22 -5 -6 4 -15 0 -21 -15 
0 0 -10 -57 -11 -2 7 4 -14 -7 -5 3 -10 -6 -37 -16 
0 0 -12 -58 -21 -4 0 -1 -25 1 -9 -13 -21 -2 -28 -27 
0 0 -8 -63 -21 3 -8 -3 -37 8 -19 -18 -25 3 -18 -39 
0 0 -12 -70 -12 -3 -7 -8 -29 0 -25 -11 -11 2 -15 -43 
0 0 -15 -57 9 1 16 11 -3 21 -3 5 1 12 7 -19 
0 0 -5 -41 22 15 45 33 18 47 25 16 10 13 11 5 
0 0 -6 -51 0 11 33 11 -2 4 13 -9 3 -17 -28 -15 
0 0 -17 -71 -24 -6 10 -7 -24 -24 -14 -31 -21 -29 -38 -27 
0 0 -9 -71 -21 -24 -2 -6 -30 0 -23 -28 -33 -22 -17 -19 
0 0 -10 -62 -21 -23 -17 -20 -45 -10 -31 -25 -30 -24 -18 -34 
0 0 -16 -62 -41 -20 -22 -26 -53 -41 -43 -33 -34 -31 -29 -46 
0 0 -15 -67 -33 -20 -6 -5 -34 -26 -34 -28 -32 -25 -21 -32 
0 0 -5 -58 -6 -8 11 2 -17 -6 -12 -18 -30 -11 -9 -32 
0 0 -13 -53 2 -9 17 -3 -15 -12 1 -16 -33 -5 -4 -33 
0 0 -4 -47 6 -11 20 6 -5 4 10 -1 -19 7 6 -7 
0 0 -9 -54 -5 -1 6 -4 -14 18 0 -6 -9 17 2 -22 
0 0 -15 -68 -15 7 -4 -17 -26 3 -9 -32 -22 3 -20 -52 
0 0 -17 -71 -1 -3 3 -5 -14 0 -1 -32 -28 -22 -34 -40 
0 0 -12 -64 0 -22 1 3 -18 -1 -8 -18 -26 -22 -23 -32 
0 0 -17 -71 -24 -27 -7 -6 -37 -18 -32 -29 -27 -9 -11 -48 
0 0 -14 -80 -35 -25 -20 -24 -40 -36 -37 -54 -28 -24 -20 -56 
1 0 -14 -74 -24 -39 -19 -42 -33 -32 -22 -50 -39 -40 -21 -49 
1 0 -23 -74 -25 -61 -4 -48 -39 -16 -22 -33 -54 -32 -14 -44 
1 0 -25 -83 -37 -41 -4 -43 -43 -20 -32 -30 -47 -24 -26 -51 
1 0 -14 -75 -32 -4 -4 -23 -28 -28 -29 -18 -27 -29 -32 -39 
1 0 -6 -59 -13 -14 6 -11 -13 -23 -21 2 -23 -30 -14 -13 
1 0 -13 -67 -14 -38 1 -22 -20 -16 -22 -8 -30 -26 -6 -25 
1 0 -19 -83 -36 -40 -19 -29 -43 -34 -36 -34 -37 -37 -32 -57 
1 0 -16 -75 -23 -15 -10 -1 -29 -33 -33 -23 -33 -35 -31 -41 
1 0 -2 -66 8 4 19 9 6 -8 -6 -12 -24 -17 0 -10 
1 0 -11 -83 3 -16 26 -17 5 -9 1 -37 -28 -21 -10 -20 
0 0 -17 -86 -16 -37 9 -32 -24 -24 -21 -54 -30 -31 -28 -39 
0 0 -24 -82 -25 -46 -18 -46 -37 -34 -35 -60 -33 -28 -7 -57 
0 0 -15 -80 -20 -43 -22 -44 -20 -28 -30 -52 -37 -33 -4 -61 
0 0 -7 -67 -4 -19 -2 -6 3 -2 -26 -23 -22 -30 -28 -35 
0 0 -8 -60 -4 -11 3 -5 2 -5 -27 -10 -17 -26 -36 -21 
0 0 -20 -76 -19 -32 -13 -42 -12 -35 -35 -25 -43 -35 -28 -35 
0 0 -9 -77 -13 -34 -25 -33 -23 -36 -35 -26 -55 -27 -17 -43 
0 0 -5 -69 -12 -27 -13 -5 -34 -34 -22 -16 -33 -29 -15 -33 
0 0 -13 -68 -28 -23 19 0 -30 -43 -9 -1 -27 -45 -27 -9 
0 0 -8 -56 -16 9 53 44 -8 -19 8 40 -37 -29 -15 18 
0 0 9 -39 9 46 82 118 12 12 16 101 -18 0 9 67 
0 0 11 -38 2 54 94 146 13 7 2 137 6 -8 -5 118 
0 0 4 -37 -8 55 108 151 0 2 10 142 -3 -6 -7 120 
0 0 13 -18 26 76 152 189 12 26 55 169 -6 29 32 134 
0 0 25 -6 54 88 174 215 40 39 86 216 13 33 34 198 
0 0 26 -17 36 63 156 192 36 15 68 218 -4 -14 -6 202 
0 0 9 -33 17 49 159 176 16 -16 38 183 -27 -31 -11 143 
0 0 5 -31 31 60 178 185 23 -9 46 168 -9 8 23 135 
0 0 -4 -38 33 46 152 164 22 2 58 153 -6 15 32 130 
0 0 -5 -51 17 18 120 114 3 -4 38 113 -20 -13 23 78 
0 0 -3 -49 23 25 116 90 4 10 25 85 -13 -1 31 54 
0 0 6 -37 29 38 99 90 12 26 39 71 -8 12 28 57 
0 0 6 -32 28 35 84 79 19 20 37 62 -10 -3 15 56 
0 0 11 -28 33 31 75 62 31 21 17 71 1 1 16 61 
0 0 -1 -34 22 30 47 50 20 30 14 67 3 23 21 42 
0 0 -4 -42 19 33 34 40 11 21 12 44 0 21 23 20 
0 0 0 -44 28 30 29 25 21 16 0 33 0 8 28 23 
0 0 -9 -57 12 5 5 2 10 28 -10 13 -11 4 26 6 
0 0 -22 -66 10 -10 2 -4 -2 22 2 -12 -15 10 26 -23 
0 0 -18 -59 31 3 22 7 11 7 7 -8 -13 28 40 -16 
0 0 -15 -64 11 -4 -2 -20 5 -11 -28 -17 -25 12 28 -22 
0 0 -24 -82 -18 -33 -45 -63 -12 -20 -55 -46 -35 -28 -1 -59 
0 0 -16 -78 1 -42 -32 -54 8 -6 -34 -42 -36 -36 -2 -52 
0 0 -8 -66 22 -24 17 -21 34 0 6 -20 -23 -14 11 -22 
0 0 -5 -64 21 -12 39 -17 30 -18 26 -18 -14 -12 17 -31 
0 0 -5 -66 25 -15 34 -22 31 -12 24 -20 -29 -26 14 -31 
0 0 2 -56 35 -11 42 -13 51 6 21 -14 -35 -26 1 8 
0 0 -3 -47 46 3 64 -2 65 -3 31 6 -9 -10 -5 32 
0 0 2 -40 42 11 69 6 57 4 45 19 4 14 16 17 
0 0 -1 -51 35 3 57 1 46 28 38 -2 -4 22 39 -10 
0 0 -3 -57 39 0 44 -5 41 18 17 -16 1 18 41 -24 
0 0 -10 -55 20 6 18 -9 21 1 -10 -14 1 26 32 -24 
0 0 -9 -54 1 -1 1 -17 9 19 -19 -21 -15 34 32 -16 
0 0 -9 -53 20 -8 18 -15 22 39 11 -18 -12 26 47 -13 
0 0 -7 -49 25 -1 35 -9 26 20 26 -7 -2 9 43 -19 
0 0 -5 -45 11 15 23 -8 13 0 0 -18 -1 6 28 -19 
0 0 5 -40 23 23 18 4 23 25 -7 0 3 24 32 5 
0 0 14 -29 42 32 34 29 45 59 20 46 9 38 38 31 
0 0 11 -33 34 43 38 37 43 43 41 39 3 14 24 27 
0 0 7 -39 28 43 43 30 35 -2 45 9 -3 -10 11 19 
0 0 9 -36 39 39 66 32 45 -5 41 24 3 14 19 29 
0 0 10 -41 43 20 57 13 44 21 31 23 -6 28 24 32 
0 0 -3 -56 23 -3 27 -18 19 18 21 -15 -24 -3 6 12 
0 0 -4 -58 -1 -12 18 -27 -6 -7 4 -24 -28 -14 -7 -7 
0 0 -4 -56 0 -8 20 -18 -4 -3 -3 -12 -22 7 1 -11 
0 0 2 -53 7 -5 16 -16 6 17 4 -21 -23 7 1 5 
0 0 -5 -56 -1 -3 5 -25 5 7 3 -31 -27 -6 -8 7 
0 0 -6 -52 3 -2 8 -22 10 -15 -3 -21 -27 -7 0 -9 
0 0 -8 -51 15 -4 23 -13 24 -10 5 -8 -20 -6 4 -14 
1 0 -1 -57 5 -5 15 -25 8 -1 5 -19 -24 -13 -5 -14 
0 0 -2 -61 8 -8 -3 -32 -5 10 -3 -34 -32 2 15 -18 
0 0 2 -51 31 -12 5 -13 18 14 5 -23 -27 13 43 -7 
0 0 -2 -61 12 -24 -1 -22 12 -26 -4 -36 -30 -22 19 -23 
0 0 -8 -83 -16 -36 -25 -43 -16 -42 -28 -65 -46 -38 -6 -55 
0 0 -9 -77 -1 -32 -11 -33 -4 8 -20 -59 -32 -2 10 -52 
0 0 -3 -68 16 -24 8 -34 25 21 2 -49 -15 2 16 -36 
0 0 -8 -77 7 -30 -3 -47 22 -15 -3 -61 -31 -23 7 -42 
0 0 -14 -81 4 -22 -4 -36 9 -5 -7 -53 -36 -5 16 -44 
0 0 -5 -68 1 -15 4 -27 16 18 5 -36 -23 10 3 -31 
0 0 -5 -63 4 -20 4 -33 28 4 5 -38 -20 -3 -16 -26 
0 0 -6 -65 18 -19 1 -34 28 0 -5 -37 -14 -10 0 -28 
0 0 -8 -71 17 -18 5 -34 25 10 2 -40 -12 -11 0 -28 
0 0 -1 -69 15 -16 17 -31 32 -3 14 -45 -23 -18 -19 -23 
0 0 -6 -62 17 -9 17 -25 29 -13 10 -38 -21 -15 -10 -25 
0 0 -3 -55 5 -3 3 -28 16 -8 -2 -41 -8 -13 -13 -32 
0 0 -11 -65 -3 -11 -5 -32 14 -10 -12 -53 -13 -19 -32 -43 
0 0 -16 -77 5 -23 -17 -26 19 -10 -19 -57 -26 -14 -18 -55 
0 0 -18 -81 2 -31 -32 -31 16 -9 -32 -67 -27 -12 -1 -71 
0 0 -15 -83 -10 -37 -35 -48 1 -15 -39 -91 -30 -29 -10 -79 
0 0 -21 -84 -6 -35 -35 -45 -7 -15 -28 -92 -31 -37 -5 -71 
0 0 -14 -73 7 -29 -26 -29 9 -5 -9 -60 -27 -17 2 -53 
0 0 -5 -64 14 -16 -2 -16 30 10 0 -35 -12 10 -3 -37 
0 0 -4 -70 12 -10 9 -3 34 30 4 -37 7 11 -1 -26 
0 0 -11 -76 3 -8 11 -8 31 32 8 -43 0 -12 -9 -29 
0 0 -14 -74 -7 -7 13 -20 28 -3 5 -41 -12 -33 -30 -42 
0 0 -9 -70 -7 -9 6 -12 18 -17 2 -36 -10 -30 -34 -33 
0 0 -5 -66 -2 -6 7 7 10 4 6 -31 -14 -23 -26 -13 
0 0 -3 -63 -5 1 13 8 10 -5 6 -27 -20 -30 -35 -19 
0 0 -9 -74 -13 1 0 -2 6 -28 -4 -32 -9 -34 -37 -47 
0 0 -7 -69 0 -3 7 5 14 -17 6 -37 -1 -20 -14 -48 
0 0 -8 -51 25 9 45 25 45 9 30 -15 1 6 7 -19 
0 0 -11 -58 10 7 29 12 36 -2 15 -15 -1 5 3 -28 
0 0 -21 -79 -14 -14 -10 -13 -2 -12 -10 -50 -8 -16 -5 -60 
0 0 -11 -65 -3 -8 10 -6 5 3 4 -49 -8 -22 -2 -48 
0 0 -16 -62 -4 -3 19 2 15 -10 4 -34 -13 -34 -12 -48 
0 0 -20 -73 -20 -15 -4 8 -2 -17 -13 -35 -10 -20 -3 -58 
0 0 -13 -66 -5 -2 7 23 -3 23 -1 -30 8 24 23 -34 
0 0 -2 -55 3 11 17 13 3 34 9 -22 2 12 11 -26 
0 0 -8 -55 -6 0 0 7 13 11 8 -21 -10 -24 -8 -36 
0 0 -1 -45 3 13 6 21 25 27 17 -9 2 8 28 -12 
0 0 1 -45 7 28 7 14 11 51 11 1 5 38 48 -4 
0 0 -3 -53 -5 7 -22 -4 -4 35 -10 -8 -3 15 10 -25 
0 0 -8 -50 4 -8 -32 -6 14 17 -8 -20 -1 8 0 -27 
0 0 -12 -59 16 -15 -25 -18 19 5 8 -34 -15 10 19 -28 
0 0 -13 -67 2 -27 -32 -45 -1 -11 -5 -38 -35 -17 2 -46 
0 0 -10 -58 -7 -28 -36 -47 0 -6 -25 -34 -29 -15 -3 -50 
0 0 -9 -54 3 -28 -35 -32 9 4 -23 -42 -21 16 26 -44 
0 0 -20 -68 -4 -28 -38 -34 6 3 -15 -55 -28 7 11 -48 
0 0 -19 -73 -22 -29 -44 -48 -6 -3 -28 -69 -37 -20 -27 -68 
0 0 -18 -69 -15 -40 -39 -44 -11 -5 -40 -77 -33 -13 -13 -76 
0 0 -11 -56 8 -25 -27 -29 3 2 -19 -55 -16 3 8 -51 
0 0 -19 -55 5 1 -25 -30 13 3 -5 -37 -10 -3 -5 -42 
0 0 -20 -65 -18 -18 -33 -36 0 -12 -18 -51 -27 -16 -17 -56 
0 0 -22 -72 -25 -41 -39 -36 -11 -14 -36 -68 -31 -8 -16 -58 
0 0 -20 -67 -13 -18 -34 -33 4 5 -29 -58 -10 12 -11 -47 
0 0 -22 -62 -1 3 -16 -23 22 12 -12 -40 3 21 2 -35 
0 0 -13 -54 2 -2 2 -5 22 18 -2 -29 -2 14 10 -22 
0 0 -12 -54 4 2 2 -3 17 26 3 -29 0 7 2 -21 
0 0 -21 -68 -11 -3 -24 -29 1 14 -18 -47 -9 -4 -11 -48 
0 0 -28 -77 -26 -10 -42 -38 -14 -8 -39 -60 -31 -19 -17 -61 
0 0 -17 -63 -8 5 -18 -8 6 5 -14 -31 -21 -12 -10 -21 
0 0 -7 -52 7 5 6 5 23 20 5 -3 -6 1 2 3 
0 0 -9 -57 -4 -6 1 -10 4 4 -5 -15 -16 5 -7 -12 
0 0 -5 -47 -7 22 11 2 1 2 10 -4 -8 8 -31 -1 
0 0 -6 -37 4 46 29 38 21 29 33 30 10 11 -25 28 
0 0 -8 -41 -5 9 15 32 17 33 19 23 -1 6 -3 18 
0 0 0 -37 6 4 19 10 22 17 22 12 -2 7 -4 22 
1 0 16 -23 33 41 48 16 48 3 44 27 14 23 -2 55 
0 0 1 -47 20 14 26 1 34 -13 21 -2 -11 4 -8 27 
0 0 -6 -74 -10 -35 -11 -34 -9 -22 -7 -55 -47 -30 -30 -21 
0 0 -6 -72 -7 -33 -5 -49 -11 -5 2 -61 -42 -11 -19 -15 
0 0 -8 -63 6 -31 6 -47 21 3 10 -50 -29 18 6 -6 
1 0 -22 -70 -2 -42 0 -40 24 -8 5 -56 -32 -1 5 -27 
1 0 -9 -75 -3 -25 1 -28 1 -11 -2 -58 -32 -23 -4 -29 
1 0 -3 -72 -2 -19 2 -26 -1 -2 -4 -50 -28 -11 -10 -18 
1 0 -17 -75 -19 -36 -10 -34 0 -6 -13 -55 -32 -6 -20 -24 
1 0 -21 -72 -14 -27 6 -18 9 7 2 -39 -23 -1 -20 -12 
1 0 5 -52 28 4 52 6 52 34 46 5 3 8 -5 27 
0 0 8 -46 36 8 47 5 64 14 45 11 0 -6 -8 28 
1 0 -5 -54 2 -5 14 -5 32 -25 12 -6 -23 -21 -27 0 
0 0 4 -46 0 -4 21 -1 30 -17 23 -1 -24 -24 -32 4 
0 0 9 -41 26 4 36 0 44 4 46 0 -19 -23 -8 22 
0 0 3 -44 34 13 27 -2 37 -5 31 -5 -18 -3 15 20 
0 0 0 -43 30 22 30 11 39 -3 26 8 -5 14 11 20 
0 0 4 -39 30 24 40 24 44 21 42 19 1 12 16 35 
0 0 -4 -43 30 31 43 26 35 26 40 22 -5 19 31 41 
0 0 -6 -45 16 24 29 21 31 11 17 14 -5 27 29 21 
1 0 -18 -57 -4 -8 -9 11 16 7 -18 -4 -9 22 25 -4 
1 0 -12 -54 6 5 9 29 14 27 -6 21 -5 25 37 18 
0 0 -4 -41 31 56 87 82 49 37 51 74 7 15 28 71 
0 0 4 -35 27 66 117 120 62 29 65 91 6 2 4 105 
0 0 14 -15 39 75 126 166 60 47 69 133 36 51 37 153 
0 0 37 20 68 126 177 232 71 73 116 220 70 83 59 216 
0 0 34 21 53 145 193 240 62 58 121 238 45 36 30 217 
0 0 24 2 26 105 157 205 41 26 77 194 7 -2 17 189 
0 0 26 0 32 88 154 203 49 27 86 193 16 20 16 197 
1 0 31 3 43 105 174 210 50 34 108 205 33 40 0 210 
0 0 23 -11 33 90 155 183 28 18 68 165 19 32 -10 186 
0 0 17 -29 29 63 126 151 28 15 45 131 1 33 4 144 
0 0 16 -39 36 60 115 122 32 12 68 117 -4 26 22 114 
1 0 9 -40 38 53 101 99 28 5 69 88 0 12 28 110 
1 0 6 -41 27 29 68 83 26 14 30 60 -2 -2 1 93 
0 0 1 -48 15 20 39 56 18 28 11 49 -11 0 -12 41 
0 0 12 -26 37 52 65 56 35 39 55 61 7 42 38 49 
0 0 18 -4 66 70 98 80 66 45 94 75 28 59 70 100 
0 0 15 -19 48 44 66 65 47 31 60 50 17 25 35 77 
0 0 0 -44 15 17 13 17 8 24 19 7 -2 21 -2 27 
0 0 4 -41 22 20 10 -3 19 37 28 -9 2 38 1 29 
0 0 -1 -46 31 6 13 -7 31 19 27 -19 2 3 4 22 
0 0 -11 -65 2 -30 -25 -38 1 -23 -3 -52 -27 -30 -8 -24 
0 0 -19 -69 -5 -33 -57 -65 -11 -28 -18 -74 -44 -10 -5 -53 
0 0 -16 -63 11 -25 -59 -56 -1 -10 -24 -62 -31 6 -1 -46 
0 0 -21 -76 -18 -38 -64 -65 -24 -17 -41 -72 -37 -8 -10 -51 
0 0 -12 -79 -31 -39 -60 -81 -35 -31 -31 -86 -53 -14 3 -55 
0 0 -2 -60 10 -30 -37 -55 2 -12 -10 -58 -40 -3 24 -32 
0 0 -4 -55 24 -29 -28 -39 19 15 -17 -32 -24 4 13 -3 
0 0 -6 -53 -4 -16 -27 -48 -4 11 -12 -32 -21 9 -3 9 
0 0 1 -38 -1 3 -8 -33 2 8 25 -17 -3 10 4 21 
0 0 9 -33 22 0 6 -15 25 32 40 2 5 7 5 25 
0 0 4 -43 23 -9 -3 -27 21 37 24 -4 -11 23 1 12 
0 0 2 -49 6 -20 -35 -54 -4 0 1 -21 -34 12 4 -3 
0 0 -2 -59 -9 -37 -53 -68 -20 -32 -9 -37 -49 -38 -5 -17 
0 0 1 -55 6 -39 -22 -54 -12 -28 11 -31 -47 -37 -15 -13 
0 0 -2 -42 27 -25 2 -28 11 -6 27 -9 -23 12 -6 10 
0 0 6 -41 18 -12 -20 -26 8 9 13 -9 -9 17 3 9 
0 0 11 -35 19 20 -17 -14 2 13 22 1 -3 16 15 6 
0 0 21 -11 42 46 12 22 25 18 41 40 20 52 34 42 
0 0 18 -16 41 31 6 26 31 29 33 40 32 44 30 51 
0 0 19 -36 27 16 -3 4 7 38 29 6 13 17 19 17 
0 0 12 -42 24 14 -7 -10 -6 27 28 -18 -8 26 23 5 
0 0 4 -44 11 -9 -41 -33 -8 2 4 -31 -25 12 14 2 
0 0 -3 -53 -2 -41 -55 -62 -17 -4 -12 -42 -32 -11 -6 -20 
0 0 0 -53 1 -33 -33 -59 -17 0 -2 -51 -30 8 -4 -22 
0 0 -3 -52 8 -13 -24 -37 -7 -3 5 -49 -32 14 7 -16 
0 0 -4 -54 3 -14 -36 -32 -3 -9 -10 -38 -26 -20 3 -25 
0 0 -1 -52 1 -10 -35 -30 -4 -6 -22 -31 -7 -28 -8 -21 
0 0 -2 -51 4 5 -26 -21 1 4 -6 -30 -2 -8 -8 -8 
0 0 0 -50 5 -2 -21 -15 -3 11 9 -23 -12 1 2 -9 
0 0 -2 -52 2 -22 -29 -18 -23 14 -12 -33 -17 -1 6 -23 
0 0 -3 -53 -7 -19 -55 -36 -31 0 -44 -60 -16 -14 -6 -39 
0 0 -4 -51 -3 0 -53 -39 -5 -8 -38 -50 -5 -9 -4 -37 
0 0 5 -42 11 7 -26 -12 7 11 2 -23 7 18 20 -16 
0 0 -6 -47 10 -1 -29 -14 -13 22 8 -34 -2 18 30 -15 
0 0 -11 -56 -5 -24 -51 -51 -23 1 -27 -54 -25 -7 7 -31 
0 0 -11 -57 -8 -34 -44 -52 -12 -11 -30 -51 -35 -10 -9 -29 
0 0 -1 -55 4 -26 -27 -33 -7 9 -4 -49 -25 11 0 -16 
0 0 -6 -62 6 -31 -29 -44 -11 18 -4 -58 -18 7 5 -22 
0 0 -3 -62 -3 -31 -31 -46 -12 -2 -8 -54 -17 -23 -4 -28 
0 0 -1 -58 -2 -12 -27 -35 -4 -13 -6 -47 -16 -21 -2 -17 
0 0 0 -56 6 -13 -34 -46 1 -12 -17 -50 -19 0 0 -14 
0 0 -2 -51 8 -20 -37 -44 -1 4 -19 -44 -15 -4 -3 -23 
0 0 -1 -58 0 -16 -34 -32 -14 1 -14 -45 -17 -22 -3 -24 
0 0 -7 -72 -8 -30 -36 -40 -26 -38 -31 -59 -34 -19 -1 -19 
0 0 -11 -64 -3 -34 -36 -41 -14 -31 -27 -49 -29 3 4 -9 
0 0 -5 -53 5 -15 -29 -29 -3 16 -7 -29 -18 3 10 -5 
0 0 -6 -59 0 -26 -29 -33 -17 12 -17 -41 -31 -17 6 -14 
0 0 -7 -56 -7 -44 -33 -38 -25 -8 -23 -55 -24 -18 0 -21 
0 0 -6 -49 0 -16 -34 -34 -12 5 -3 -43 -4 -15 -1 -21 
0 0 1 -51 3 9 -31 -29 -7 5 -2 -37 -14 -24 -6 -11 
0 0 1 -51 -2 -1 -19 -12 -13 4 -13 -37 -12 -5 -4 5 
0 0 6 -43 -4 2 -2 2 -15 8 1 -24 11 14 0 15 
0 0 4 -43 4 24 14 11 -4 -6 25 -7 13 4 2 12 
0 0 12 -39 18 24 26 24 11 11 33 3 6 6 12 17 
0 0 8 -35 18 26 27 34 12 39 24 10 14 24 19 23 
0 0 1 -34 7 32 15 28 0 19 10 7 11 21 12 16 
0 0 -5 -43 -2 7 1 8 -17 -6 5 -2 -6 5 6 5 
0 0 1 -50 -2 -5 -2 -8 -28 1 3 -6 -16 -4 1 3 
0 0 1 -46 6 13 4 -4 -7 12 -1 0 -10 5 -1 10 
0 0 8 -37 15 15 13 6 9 14 3 5 -2 13 11 13 
0 0 2 -45 5 -5 3 -2 -4 -4 3 -5 -17 -17 -3 1 
0 0 -7 -55 -5 -8 -5 -6 -12 -20 1 -10 -28 -35 -28 -3 
0 0 2 -42 14 12 19 12 3 5 19 7 -7 -3 0 15 
