# H:M:S.f Gyro(x) Gyro(y) F3 F4 P7 FC6 F7 F8 T7 P8 FC5 AF4 T8 O2 O1 AF3
0 0 -17 -17 30 37 42 2 44 55 38 -1 47 42 6 9 
0 0 5 -19 19 23 9 -11 30 37 28 -17 27 38 12 -1 
0 0 10 -26 17 14 -15 -19 28 16 9 -19 22 21 20 -2 
0 0 56 8 45 36 2 13 55 31 38 17 36 38 10 32 
0 0 47 17 68 61 23 45 82 67 82 54 59 71 34 67 
0 0 47 -3 21 3 -43 -23 30 13 40 -1 19 19 25 20 
0 0 9 -39 -1 -31 -82 -61 11 -32 5 -34 -12 -26 -3 -13 
0 0 25 -20 19 -19 -85 -47 31 -28 15 -21 -20 -13 -4 0 
0 0 21 -19 32 3 -72 -17 47 7 33 6 4 9 13 31 
0 0 19 -27 -1 -23 -97 -42 7 5 10 -18 -3 -21 -17 12 
0 0 -16 -51 -1 -22 -109 -48 5 18 6 -32 2 -14 -11 -6 
0 0 13 -30 25 -18 -121 -41 15 22 18 -26 18 14 12 -4 
0 0 -3 -18 40 1 -114 -14 34 30 35 -2 36 31 21 12 
0 0 3 -21 20 2 -135 -24 27 11 25 -12 4 7 6 -5 
1 0 1 -24 29 17 -140 -22 36 7 23 -9 9 10 28 -3 
0 0 5 -8 44 24 -141 -9 37 13 31 3 36 25 38 13 
0 0 -12 -9 36 19 -148 -7 37 22 39 -6 28 24 18 17 
0 0 -26 -35 21 6 -174 -23 33 17 23 -27 14 5 13 -2 
0 0 -16 -35 20 -5 -197 -36 17 15 -5 -39 23 8 17 -14 
0 0 -12 -16 33 20 -182 -9 32 50 7 -18 46 38 5 10 
0 0 17 -12 31 29 -172 9 42 63 23 -3 47 47 -7 20 
0 0 -7 -46 20 12 -190 -5 34 45 11 -6 36 33 7 0 
0 0 8 -48 1 -24 -230 -47 2 2 -16 -39 -8 5 0 -37 
0 0 3 -39 17 -6 -218 -31 14 5 0 -28 6 4 -6 -26 
0 0 35 -13 28 9 -205 -15 25 -3 19 -13 26 0 -13 -2 
0 0 28 -19 31 20 -191 1 29 -5 35 9 22 7 -2 30 
0 0 43 -12 11 5 -215 -19 -5 -19 17 -4 -7 -5 -6 16 
0 0 40 -17 21 19 -212 -12 10 6 20 1 24 11 8 15 
0 0 76 3 53 34 -183 11 57 24 51 24 42 29 22 46 
0 0 28 -9 72 48 -157 36 84 26 77 47 39 34 50 70 
0 0 6 -11 39 24 -188 7 29 12 54 21 23 27 42 49 
0 0 5 -1 31 20 -188 4 25 30 45 19 35 39 27 54 
0 0 26 10 49 25 -184 15 55 10 55 36 25 8 13 59 
0 0 -16 -12 53 25 -201 10 55 -18 54 32 -1 2 46 44 
0 0 -27 -22 40 11 -216 -5 26 -8 36 14 -6 32 56 34 
0 0 -8 -12 41 19 -193 16 38 10 44 28 19 12 -2 46 
0 0 -19 -19 47 27 -175 35 58 4 66 42 29 -31 -35 52 
0 0 -20 -26 40 15 -193 19 42 3 58 16 23 -1 4 44 
0 0 -24 -36 31 13 -209 11 33 19 40 -2 25 22 21 30 
0 0 13 -28 22 7 -215 -3 24 5 32 -16 14 -12 -8 9 
0 0 14 -26 42 28 -190 12 45 22 60 -3 29 18 8 24 
0 0 35 -25 32 17 -202 7 40 17 56 -12 23 34 10 24 
0 0 11 -47 19 4 -214 6 32 7 36 -13 15 10 5 14 
0 0 36 -21 28 -3 -212 -5 36 -1 35 -10 4 11 10 12 
0 0 25 -21 46 14 -189 8 62 10 61 6 16 28 16 28 
0 0 10 -33 14 -16 -231 -21 19 -27 29 -25 -12 -12 -8 -3 
0 0 -17 -52 1 -19 -247 -27 -2 -32 18 -34 -15 -19 -19 -10 
0 0 26 -33 20 -4 -224 -14 28 -20 52 -20 -11 -17 -32 9 
0 0 4 -38 44 18 -196 14 69 -14 69 4 5 -18 -19 26 
0 0 -3 -38 25 9 -230 9 29 -28 38 -9 4 -15 -11 7 
0 0 -8 -31 15 5 -244 11 10 -9 40 -13 13 10 -5 6 
0 0 7 -8 27 12 -219 17 43 -1 65 3 19 -1 -18 20 
0 0 -10 3 47 43 -176 41 72 6 84 40 26 2 -11 49 
0 0 -10 -3 48 55 -169 51 57 11 90 54 20 12 6 57 
0 0 -8 -12 32 28 -196 27 34 -9 73 30 10 -1 8 31 
0 0 -28 -25 21 9 -222 7 24 -20 51 7 6 -6 3 10 
0 0 0 -21 39 17 -218 10 37 8 52 8 17 21 28 15 
0 0 1 -31 60 24 -200 20 55 35 60 21 36 33 57 17 
0 0 14 -44 18 -22 -235 -21 10 -11 21 -13 -2 -8 14 -18 
0 0 0 -60 -4 -35 -251 -35 -9 -31 3 -35 -24 -16 -6 -24 
0 0 27 -40 12 -25 -248 -31 -7 -20 9 -41 -18 -5 9 -24 
0 0 1 -44 24 0 -227 -1 0 6 28 -20 11 -6 6 -20 
0 0 9 -36 8 -3 -235 -2 -1 -6 31 -19 4 -21 -12 -24 
0 0 9 -41 12 9 -235 7 29 7 33 -10 18 -2 6 -15 
0 0 26 -29 4 3 -254 2 13 10 15 -15 18 -4 -10 -26 
0 0 -5 -46 9 24 -244 21 11 29 26 4 29 7 -23 -17 
0 0 7 -44 -1 18 -254 6 -5 11 18 -7 13 7 -20 -30 
0 0 -21 -42 -14 6 -260 -7 -24 -1 -1 -21 7 5 -13 -43 
0 0 -14 -21 -4 15 -247 4 -27 20 10 -4 23 4 -21 -28 
0 0 -13 -12 33 46 -225 36 2 52 37 32 50 30 8 -1 
0 0 -19 -21 17 17 -257 8 -24 17 10 6 20 13 12 -30 
0 0 -46 -36 -8 -12 -276 -26 -52 -11 -12 -28 -14 -7 -9 -50 
0 0 -35 -33 8 10 -258 -10 -26 8 9 -11 4 7 -9 -30 
0 0 -10 -28 19 22 -246 5 -15 14 20 4 12 15 3 -22 
0 0 -25 -29 22 16 -235 5 -25 26 30 7 13 30 14 -16 
0 0 11 -12 29 21 -225 8 -10 32 38 14 27 34 21 -9 
0 0 20 -16 45 42 -210 33 31 29 38 40 33 14 34 3 
0 0 30 -19 33 23 -223 22 14 7 22 30 4 2 17 -4 
0 0 -1 -33 7 8 -227 7 -11 4 19 13 8 17 -5 -15 
0 0 20 -25 -13 -10 -245 -15 -35 -9 0 -8 -5 4 -24 -46 
0 0 16 -36 10 6 -229 7 -18 19 8 9 2 6 -5 -31 
0 0 39 -29 12 0 -222 4 -13 30 12 -2 12 11 2 -16 
0 0 33 -32 15 10 -206 13 13 36 19 6 33 22 12 -6 
0 0 56 -10 26 20 -207 22 21 25 22 20 22 29 14 0 
0 0 11 -22 30 34 -192 37 28 37 30 33 32 39 22 18 
0 0 -14 -31 4 18 -201 20 5 30 13 17 24 6 9 4 
0 0 -32 -36 1 12 -205 18 -2 19 13 18 11 -12 1 6 
0 0 -3 -25 -4 -3 -215 1 -14 -12 14 10 -9 -13 -13 9 
0 0 -28 -30 -2 -8 -212 -7 -16 -4 15 3 3 13 1 7 
0 0 -41 -37 3 4 -211 3 -10 23 20 9 15 18 11 6 
0 0 -29 -43 -4 12 -208 11 -4 11 16 15 -5 -5 -8 8 
0 0 -27 -47 -8 -6 -203 3 -4 -18 11 12 -23 -18 -23 0 
0 0 -18 -44 9 -22 -191 0 8 -6 23 11 -3 -4 -4 -1 
0 0 -25 -56 22 -10 -175 9 29 27 35 18 26 11 15 12 
0 0 6 -55 5 -18 -192 -8 11 11 15 -6 10 0 6 -4 
0 0 7 -61 6 -16 -196 -6 2 2 11 -15 -1 -5 3 -9 
0 0 33 -44 15 -13 -185 -5 8 -1 15 -13 -5 1 1 1 
0 0 6 -43 33 10 -157 18 42 21 32 13 18 19 23 21 
0 0 24 -30 25 3 -168 14 33 19 31 16 15 -5 9 11 
0 0 25 -33 25 14 -162 25 37 26 38 31 22 -11 -5 15 
0 0 38 -14 27 19 -160 26 39 17 41 37 19 13 2 17 
0 0 6 -24 41 40 -144 56 57 32 49 59 40 37 25 26 
0 0 14 -22 27 35 -163 57 41 22 32 54 35 15 4 7 
0 0 -9 -24 29 44 -168 65 44 27 33 50 36 22 14 7 
0 0 -7 -26 35 37 -172 53 32 28 28 33 28 20 33 3 
0 0 -33 -43 33 34 -167 46 28 47 18 29 36 27 37 -8 
0 0 -29 -29 19 32 -170 46 36 57 13 28 39 30 16 -17 
0 0 -36 -24 17 33 -164 55 46 42 17 33 38 15 6 -1 
0 0 -40 -50 5 -2 -179 23 15 8 0 6 10 -15 -3 -14 
0 0 -53 -74 -16 -37 -202 -14 -14 -2 -22 -35 -13 -20 -15 -46 
0 0 -70 -77 -24 -29 -206 -12 -15 10 -27 -41 -10 -15 -24 -49 
0 0 -40 -68 -35 -36 -220 -20 -32 -8 -45 -43 -25 -21 -26 -54 
0 0 -39 -77 -36 -44 -224 -26 -33 -16 -49 -41 -31 -29 -16 -59 
0 0 -23 -71 -36 -41 -222 -21 -26 -10 -47 -38 -24 -43 -26 -58 
0 0 -30 -71 -32 -26 -215 -4 -27 -3 -43 -21 -11 -25 -31 -47 
0 0 5 -58 -44 -40 -234 -18 -51 -20 -55 -30 -22 -14 -36 -55 
0 0 -18 -68 -32 -10 -221 1 -29 4 -37 -12 4 -12 -23 -45 
0 0 -10 -61 -30 -14 -226 -4 -37 -2 -40 -13 -8 -29 -30 -57 
0 0 -6 -68 -29 -30 -225 -8 -47 -14 -46 -17 -25 -28 -31 -61 
0 0 24 -48 -27 -26 -222 -10 -41 -24 -35 -17 -21 -26 -26 -46 
0 0 -2 -54 -8 9 -193 16 -5 6 -12 3 16 -2 -3 -15 
0 0 7 -60 -22 -19 -210 -8 -25 -5 -35 -24 -1 3 -11 -34 
0 0 -20 -60 -14 -22 -204 -14 -20 -2 -36 -21 -3 11 -6 -31 
0 0 -20 -34 8 -5 -188 -1 0 12 -14 2 6 4 -7 -8 
0 0 -31 -39 7 -12 -186 0 -1 5 -11 -4 -9 -3 -9 -4 
0 0 -18 -43 -16 -28 -201 -14 -26 -29 -26 -22 -22 -27 -33 -27 
0 0 -46 -48 -27 -10 -197 1 -34 -36 -28 -10 1 -36 -50 -26 
0 0 -69 -62 -30 -4 -200 6 -34 -22 -22 -10 -3 -28 -49 -18 
0 0 -38 -61 -20 -17 -196 -8 -14 -17 -9 -22 -27 -19 -36 -18 
0 0 -42 -58 -9 -13 -184 3 8 -12 2 -10 -23 -23 -30 -15 
0 0 -33 -58 -29 -22 -210 -11 -24 -28 -28 -26 -33 -31 -32 -27 
0 0 -15 -65 -29 -28 -214 -27 -34 -32 -37 -36 -35 -28 -21 -33 
0 0 27 -43 -13 -32 -194 -24 -23 -13 -20 -30 -18 -22 -32 -35 
0 0 -9 -51 -13 -17 -194 -6 -19 20 -18 -21 3 8 -25 -27 
0 0 -4 -54 -30 -24 -223 -31 -33 -7 -47 -43 -19 -8 -31 -42 
0 0 -22 -71 -23 -30 -210 -33 -17 -18 -48 -44 -18 -35 -31 -49 
0 0 -16 -57 -29 -61 -219 -46 -33 -11 -45 -54 -22 -33 -29 -54 
1 0 -12 -69 -23 -48 -212 -34 -23 3 -40 -44 -15 -11 -14 -33 
1 0 11 -77 -36 -53 -224 -50 -41 -49 -65 -62 -41 -51 -40 -52 
1 0 -24 -85 -41 -55 -225 -56 -45 -54 -65 -66 -45 -56 -42 -66 
1 0 6 -57 -34 -46 -220 -50 -36 -23 -39 -55 -41 -25 -26 -53 
1 0 0 -54 -20 -18 -190 -19 -17 -2 -18 -29 -20 -3 -21 -23 
1 0 7 -63 -43 -42 -209 -42 -49 -30 -51 -41 -25 -24 -50 -50 
1 0 -10 -76 -55 -64 -229 -62 -63 -33 -70 -54 -39 -28 -53 -74 
1 0 -6 -74 -48 -61 -229 -60 -54 -18 -60 -60 -47 -13 -33 -68 
1 0 -19 -61 -40 -55 -216 -60 -45 -22 -60 -53 -37 -6 -8 -54 
1 0 -43 -57 -39 -58 -203 -59 -43 -36 -57 -33 -23 -25 -9 -50 
1 0 -34 -53 -35 -58 -199 -43 -43 -35 -45 -24 -22 -24 -20 -37 
0 0 -42 -52 -25 -39 -194 -28 -32 -19 -38 -14 -24 -10 -15 -15 
0 0 -16 -44 -36 -41 -196 -38 -39 -28 -53 -15 -32 -34 -30 -24 
0 0 -21 -53 -44 -34 -178 -23 -33 -16 -44 1 -16 -44 -52 -21 
0 0 12 -44 -36 -40 -176 -25 -26 -10 -36 -6 -23 -27 -52 -15 
0 0 -14 -55 -19 -33 -173 -20 -16 -11 -34 -5 -23 -11 -34 -13 
0 0 -4 -59 -48 -48 -200 -35 -54 -24 -56 -26 -35 -27 -57 -41 
0 0 -9 -70 -53 -39 -197 -27 -51 4 -50 -23 -21 -21 -54 -33 
0 0 13 -53 -31 -30 -187 -31 -23 -14 -31 -22 -26 -30 -41 -20 
0 0 7 -59 -12 -21 -172 -23 -8 -37 -17 -22 -16 -23 -25 -21 
0 0 10 -63 -32 -45 -195 -46 -40 -32 -36 -47 -22 -20 -33 -48 
0 0 -35 -82 -45 -51 -199 -56 -35 -20 -45 -43 -28 -31 -43 -59 
0 0 -30 -79 -43 -59 -198 -56 -24 -57 -48 -43 -48 -66 -59 -67 
0 0 -51 -80 -24 -50 -179 -31 -8 -38 -35 -42 -31 -40 -45 -57 
0 0 -55 -76 -18 -40 -173 -26 -6 2 -31 -42 -2 -13 -33 -50 
0 0 -58 -78 -20 -40 -172 -38 -7 2 -39 -44 -2 -27 -26 -51 
0 0 -49 -78 -29 -57 -187 -50 -28 -15 -46 -52 -29 -46 -26 -63 
0 0 -59 -74 -36 -49 -190 -40 -32 -14 -49 -43 -32 -40 -32 -63 
0 0 -73 -75 -32 -37 -179 -37 -14 -6 -46 -40 -10 -30 -31 -57 
0 0 -46 -77 -29 -54 -180 -54 -21 -17 -43 -58 -17 -24 -19 -64 
0 0 -46 -88 -33 -59 -177 -53 -29 -30 -35 -52 -42 -26 -21 -58 
0 0 -16 -73 -26 -44 -165 -41 -21 -29 -30 -34 -39 -31 -34 -42 
0 0 -18 -64 -3 -18 -139 -5 5 -4 -11 -6 2 -15 -24 -30 
0 0 4 -51 -16 -28 -156 -16 -14 -31 -22 -22 -5 -29 -26 -46 
0 0 -17 -71 -26 -30 -162 -29 -16 -30 -33 -28 -16 -43 -30 -41 
0 0 0 -70 -30 -48 -166 -41 -27 -20 -38 -31 -35 -52 -42 -52 
0 0 -11 -78 -14 -38 -146 -22 -21 -8 -17 -21 -18 -34 -15 -47 
0 0 11 -73 -12 -44 -155 -40 -22 -18 -24 -41 -14 -21 -5 -46 
0 0 -2 -72 -4 -33 -155 -34 6 -3 -23 -26 -18 -3 -8 -36 
0 0 4 -51 -10 -37 -160 -26 8 -20 -21 -12 -43 -21 -25 -43 
0 0 -35 -63 -15 -34 -154 -22 -4 -33 -19 -14 -35 -29 -16 -46 
0 0 -40 -66 -28 -40 -162 -35 -20 -47 -29 -22 -33 -31 -22 -57 
0 0 -56 -65 -13 -27 -140 -13 11 -39 -14 3 -30 -17 -27 -36 
0 0 -41 -59 -3 -22 -125 -1 19 -30 -1 10 -28 -23 -33 -10 
0 0 -46 -60 -15 -20 -121 3 -4 -19 -4 5 -14 -23 -39 -4 
0 0 -57 -59 -19 -11 -119 6 -7 -6 1 16 -1 -11 -34 -8 
0 0 -48 -67 -11 -33 -130 -17 -2 -25 -2 0 -20 -21 -13 -18 
0 0 -45 -77 -9 -57 -138 -41 -12 -52 -10 -29 -39 -48 -21 -20 
0 0 -6 -55 -8 -40 -118 -27 -5 -34 4 -16 -25 -45 -42 -1 
0 0 0 -53 8 -7 -89 -1 27 14 32 28 -7 -5 -14 25 
0 0 12 -56 -1 -31 -113 -29 11 -11 6 14 -39 -4 -1 3 
0 0 -9 -63 -12 -42 -136 -28 -4 -34 -15 4 -36 -26 -22 -15 
0 0 19 -42 -24 -30 -142 -12 -18 -24 -15 8 -23 -31 -36 -12 
0 0 -14 -63 -11 -6 -116 7 -3 4 -1 23 -8 -7 -7 5 
0 0 -10 -62 -10 -22 -120 -8 -7 -20 -9 9 -26 -31 -21 -7 
0 0 -2 -51 -12 -12 -112 13 1 -11 -3 22 -17 -31 -36 -2 
0 0 9 -44 -37 -21 -131 2 -23 -12 -18 12 -18 -11 -42 -15 
0 0 -43 -68 -29 -15 -124 5 -14 -11 -15 19 -11 -13 -29 -11 
0 0 -24 -50 -10 -3 -111 21 0 -11 3 34 -11 -26 -25 1 
0 0 -22 -41 1 18 -95 45 9 13 15 49 6 4 -18 15 
0 0 -14 -45 -8 -8 -113 24 -6 -7 3 28 -8 -13 -26 7 
0 0 -38 -55 -2 -17 -117 2 4 -22 0 18 -23 -33 -3 17 
0 0 -36 -51 5 0 -105 4 16 -5 8 31 -15 -10 13 29 
0 0 -36 -52 -2 -8 -97 8 13 12 11 36 2 13 -5 19 
0 0 -46 -61 -22 -32 -113 -3 -7 4 -2 14 -2 -4 -33 -6 
0 0 -44 -69 -34 -32 -128 -10 -24 -20 -21 -2 -24 -22 -29 -15 
0 0 -48 -70 -15 -1 -103 18 1 -9 -9 27 -11 -16 -1 9 
0 0 -12 -44 -2 -2 -88 23 12 11 2 35 2 -7 1 16 
0 0 -19 -58 -9 -19 -105 4 -1 6 -11 16 -3 -3 -16 -3 
0 0 -9 -71 -23 -25 -131 -13 -14 -25 -34 0 -22 -14 -30 -23 
0 0 -27 -64 -12 4 -112 19 12 7 -17 23 -1 7 -1 -11 
0 0 2 -33 -18 -7 -115 12 -1 20 -6 11 3 9 -5 -23 
0 0 -12 -51 -17 -10 -114 4 -5 10 -7 10 7 -1 -11 -22 
0 0 5 -47 -20 -18 -123 -15 -5 -10 -19 10 -13 -23 -9 -15 
0 0 13 -45 -8 -14 -104 -5 12 6 -3 24 -15 -14 2 0 
0 0 41 -32 -1 -21 -104 -4 4 -9 -2 19 -13 -11 1 -8 
0 0 -2 -43 10 1 -85 16 16 0 4 30 13 5 25 5 
0 0 0 -39 -4 -8 -90 2 7 7 1 21 9 13 18 5 
0 0 -9 -35 2 4 -85 7 19 17 5 32 15 21 -1 14 
0 0 -8 -21 7 16 -85 22 14 9 6 44 12 0 -11 20 
0 0 -35 -33 1 12 -80 21 5 11 5 34 14 5 2 20 
0 0 -39 -47 -3 -1 -87 6 7 12 -5 13 11 11 3 15 
0 0 -40 -53 -7 -16 -102 -4 9 -3 -16 2 -14 -18 -2 7 
0 0 -52 -62 -22 -30 -109 -11 -16 -14 -15 2 -25 -33 -9 -9 
0 0 -36 -57 -17 -20 -95 -6 -23 4 -8 15 -1 5 -9 -12 
0 0 -46 -61 14 10 -74 18 16 29 1 35 26 30 10 5 
0 0 -21 -61 1 -15 -105 -8 9 -12 -21 2 -6 -5 11 -18 
0 0 -21 -74 -23 -39 -122 -28 -8 -36 -37 -23 -30 -33 -14 -40 
0 0 -3 -66 -28 -53 -119 -35 -15 -31 -41 -32 -41 -50 -51 -46 
0 0 -21 -75 3 -34 -98 -19 10 -9 -20 -18 -12 -33 -32 -30 
0 0 13 -60 1 -36 -108 -35 6 -27 -18 -27 -12 -29 -9 -34 
0 0 3 -66 -12 -29 -105 -24 6 -21 -16 -20 -14 -28 -12 -25 
0 0 5 -58 -12 -35 -102 -16 0 -17 -20 -11 -17 -25 -32 -21 
0 0 -13 -58 16 -10 -72 6 26 -5 -4 22 4 -7 -3 0 
0 0 3 -47 9 -12 -84 -7 14 -24 -10 18 -12 -25 0 -2 
0 0 -34 -56 -3 -12 -94 -8 -2 -10 -11 13 -6 -20 -7 0 
0 0 -35 -46 2 -2 -88 -5 1 17 -4 17 19 4 7 1 
0 0 -50 -47 16 7 -74 9 31 27 3 27 22 21 39 4 
0 0 -39 -45 9 -9 -90 0 23 2 -1 18 -6 15 31 -2 
0 0 -49 -39 12 7 -75 8 29 12 11 26 8 27 27 14 
0 0 -57 -34 24 36 -52 26 53 50 22 45 38 43 29 23 
0 0 -43 -42 16 17 -66 13 40 51 8 33 28 41 23 5 
0 0 -49 -59 -2 -21 -82 -19 11 10 -3 4 -5 7 21 -16 
0 0 -37 -62 -8 -40 -86 -40 7 -17 -4 -11 -21 -17 13 -27 
0 0 -30 -59 11 -13 -80 -11 31 17 8 12 10 11 5 -10 
0 0 3 -33 16 11 -82 10 25 35 1 26 26 36 14 8 
0 0 -18 -42 9 16 -72 15 27 33 -6 34 26 34 35 10 
0 0 6 -44 -1 -15 -87 -9 21 28 -9 18 12 17 23 -8 
0 0 -20 -61 15 -10 -72 1 37 54 8 23 33 30 31 10 
0 0 -18 -52 6 -15 -73 -18 25 31 -6 5 13 14 22 1 
0 0 -9 -54 0 -14 -81 -28 16 19 -8 5 -6 4 22 -8 
0 0 16 -44 0 -24 -100 -34 1 13 -10 3 -17 -10 28 -6 
0 0 -30 -59 19 6 -64 0 28 29 4 27 16 0 40 22 
0 0 -14 -53 13 13 -51 10 15 20 7 30 19 0 24 19 
0 0 -21 -58 9 -2 -60 4 -2 13 4 25 4 1 46 9 
0 0 -23 -48 14 -15 -64 -3 22 0 1 22 -8 -12 55 3 
0 0 -46 -49 26 9 -33 18 60 4 20 34 12 -5 46 15 
0 0 -35 -53 12 -1 -38 8 22 -9 18 23 7 -8 40 11 
0 0 -26 -42 3 -13 -44 -1 -2 -6 8 19 -1 -19 34 11 
0 0 -25 -19 23 18 -22 25 32 20 25 49 11 0 32 36 
0 0 -22 -8 26 30 -25 32 38 9 31 65 15 19 50 47 
0 0 -41 -22 14 12 -42 15 20 -14 15 63 9 -1 50 37 
0 0 -19 -25 1 -8 -50 -1 3 -14 0 49 -17 -24 20 21 
0 0 -20 -41 -2 -3 -44 5 -1 22 6 44 -12 8 27 20 
0 0 10 -39 3 4 -38 8 3 44 9 42 20 41 44 21 
0 0 -9 -51 25 32 -7 39 38 58 26 57 44 37 50 31 
0 0 -3 -54 7 5 -34 5 17 28 6 18 3 14 40 -4 
0 0 -9 -62 -1 -4 -45 -6 11 41 0 9 16 28 42 -13 
0 0 21 -39 11 -5 -31 9 23 43 9 34 36 24 28 4 
0 0 -2 -53 13 -1 -26 15 32 28 11 48 17 9 30 13 
0 0 3 -66 -15 -29 -70 -26 -3 4 -20 9 -13 -9 23 -13 
0 0 -32 -86 -3 -36 -63 -21 6 15 -23 0 5 1 31 -19 
0 0 -42 -81 10 -51 -48 -25 15 0 -13 -8 -9 -11 39 -31 
0 0 -69 -88 -2 -56 -48 -46 7 -12 -17 -24 -28 -24 51 -38 
0 0 -42 -72 -14 -49 -51 -44 -2 -9 -21 -27 -27 -35 26 -37 
0 0 -45 -55 21 -14 -17 2 39 34 15 10 11 8 28 -9 
0 0 -60 -57 27 -9 -12 -2 39 51 29 16 18 30 42 -10 
0 0 -66 -69 -9 -31 -29 -33 11 16 2 -6 -11 -11 14 -35 
0 0 -65 -68 -22 -36 -27 -29 18 -9 -12 -1 -25 -37 -13 -38 
0 0 -45 -55 -7 -27 -25 -17 15 -1 0 9 -13 -16 13 -24 
0 0 -59 -68 2 -14 -22 -1 7 13 10 20 4 -15 33 -12 
0 0 -34 -61 -4 -14 -13 11 34 1 5 27 4 -40 6 -10 
0 0 -28 -57 5 1 -4 19 61 10 16 30 13 -28 2 -4 
0 0 -10 -57 -13 -14 -38 -12 14 -5 4 -5 -6 -38 -3 -25 
0 0 -48 -77 -14 -7 -36 12 16 7 -1 5 12 -45 4 -28 
0 0 -34 -66 -10 -5 -31 31 31 18 -8 16 22 -30 3 -30 
0 0 -31 -66 -6 7 -18 35 39 36 0 22 24 8 5 -26 
0 0 -12 -49 -16 12 -26 30 20 30 -3 23 16 9 2 -29 
0 0 -45 -61 -10 44 -15 63 24 42 5 53 43 7 30 -13 
0 0 -39 -64 -19 28 -23 55 14 32 -4 48 41 -2 26 -23 
0 0 -59 -69 -20 14 -14 42 24 38 -5 40 39 7 7 -32 
0 0 -50 -55 -20 12 -18 26 15 34 -3 30 35 6 4 -38 
0 0 -71 -64 -5 19 -13 35 18 42 11 42 38 17 28 -21 
0 0 -64 -60 -3 16 -13 42 22 52 9 50 33 10 13 -21 
1 0 -63 -52 -13 25 -16 41 21 54 -1 43 34 0 0 -36 
0 0 -59 -57 -32 3 -28 8 3 26 -8 15 19 -4 8 -48 
0 0 -55 -56 -26 -17 -15 0 13 13 8 14 6 7 16 -23 
0 0 -56 -47 -3 8 18 35 44 33 34 48 17 17 11 19 
0 0 -14 -37 8 20 28 42 44 36 36 56 22 16 13 25 
0 0 -9 -48 18 9 29 27 39 33 39 51 22 9 32 15 
0 0 -7 -41 14 0 28 19 36 13 44 48 16 -5 22 9 
0 0 -21 -38 18 28 50 49 51 6 58 72 23 4 4 27 
0 0 20 -31 2 21 24 38 27 -17 39 64 -3 -8 -6 14 
0 0 -2 -46 9 25 11 37 25 -5 32 71 12 -16 19 13 
0 0 -2 -31 19 26 17 38 28 8 33 76 29 -19 13 19 
0 0 -7 -41 25 44 36 60 46 29 47 93 40 7 13 38 
0 0 31 -33 18 43 27 54 38 25 47 93 26 24 31 38 
0 0 12 -39 28 43 39 53 46 36 52 96 37 28 46 42 
0 0 15 -39 16 14 23 27 34 22 35 68 21 -2 13 26 
0 0 -13 -45 8 15 15 27 34 17 29 64 19 1 16 22 
0 0 -2 -17 22 31 22 37 40 9 32 83 21 9 32 26 
0 0 -16 -15 35 43 41 55 59 29 42 92 34 22 28 33 
0 0 -30 -33 15 32 26 48 46 42 35 76 42 28 11 22 
0 0 -49 -40 5 19 17 33 30 18 28 70 30 15 8 18 
0 0 -42 -40 15 15 24 28 35 -7 37 70 5 -18 -1 25 
0 0 -29 -44 18 24 26 36 42 5 35 66 13 -16 -3 22 
0 0 -70 -60 4 25 10 36 26 20 12 60 27 12 15 6 
0 0 -50 -61 -13 0 -15 8 7 -4 -5 35 -1 -3 6 -7 
0 0 -14 -55 2 8 8 12 39 -4 24 40 1 -28 -1 15 
0 0 20 -32 12 9 29 19 47 5 41 51 16 -27 5 29 
0 0 -15 -41 11 17 39 34 34 16 41 69 22 1 9 40 
0 0 4 -35 -10 4 4 18 9 -14 17 54 -9 -7 -11 19 
0 0 7 -33 -6 17 4 26 24 -19 23 59 -4 -12 -5 21 
0 0 29 -21 -5 13 7 24 26 -11 26 62 8 -15 -3 27 
0 0 -13 -50 3 15 13 34 40 13 26 68 22 -1 12 28 
0 0 -29 -58 -12 -9 -13 8 15 -12 3 30 -10 -7 -7 -8 
0 0 -47 -65 -17 -10 -3 9 10 -10 7 23 -10 -4 -22 -4 
0 0 -27 -56 -11 -11 11 17 22 -5 20 43 4 -23 -19 10 
0 0 -68 -61 -1 -10 11 21 29 -11 17 47 6 -25 3 1 
0 0 -66 -56 -18 -27 -11 -2 3 -27 -7 17 -14 -19 -14 -21 
0 0 -55 -52 -20 -21 -9 6 12 -16 -8 24 -8 -17 -25 -10 
0 0 -51 -54 -14 -13 -9 14 11 -16 -4 36 -4 -35 -22 -8 
0 0 -67 -62 -16 -11 -8 9 1 -13 -6 29 4 -17 -13 -6 
0 0 -72 -62 -23 -12 -14 11 8 2 -4 31 14 7 -4 1 
0 0 -51 -51 -24 -10 -28 19 12 2 -9 35 8 -5 1 -8 
0 0 -55 -55 -7 10 -10 36 27 23 1 47 30 5 0 6 
0 0 -26 -57 -4 2 3 25 29 18 8 45 32 23 -4 21 
0 0 -23 -65 -12 -6 -5 19 22 -9 4 44 8 -1 2 9 
0 0 1 -43 -14 -10 -13 24 8 -18 -8 36 -9 -22 -16 -11 
0 0 -30 -51 5 10 14 43 36 17 9 52 22 9 -20 13 
0 0 -20 -60 -16 -22 -8 6 25 -7 1 31 -1 -13 -24 3 
0 0 -34 -80 -36 -49 -32 -16 4 -36 -13 1 -34 -55 -27 -28 
0 0 -28 -73 -38 -66 -57 -41 -22 -67 -33 -28 -51 -71 -45 -58 
0 0 -45 -86 -14 -42 -39 -25 2 -41 -20 -3 -17 -35 -16 -34 
0 0 -9 -76 -17 -32 -25 -6 5 -17 -6 17 -6 -22 -6 -14 
0 0 -24 -71 -10 -20 -12 7 12 -20 1 26 -10 -26 -7 -14 
0 0 -31 -65 -16 -34 -37 -16 9 -48 -21 2 -36 -47 -22 -38 
0 0 -62 -80 -28 -32 -36 -13 12 -28 -24 -5 -10 -31 -29 -28 
0 0 -60 -82 -37 -42 -35 -26 -13 -30 -23 -15 -5 -29 -34 -30 
0 0 -63 -83 -34 -63 -44 -46 -19 -61 -35 -27 -47 -54 -24 -48 
0 0 -48 -73 -26 -62 -30 -26 -2 -54 -26 -14 -51 -43 -19 -34 
0 0 -42 -54 -2 -18 10 14 24 -13 12 30 3 10 -3 11 
0 0 -61 -52 14 3 13 17 32 6 19 49 23 21 13 17 
0 0 -41 -59 -7 -22 -18 -7 14 -6 -8 16 -5 -3 6 -8 
0 0 -18 -54 5 -2 13 21 39 18 18 33 17 14 13 18 
0 0 18 -22 36 34 53 57 79 38 56 77 49 36 24 57 
0 0 -13 -28 39 52 57 72 83 38 63 91 54 36 34 66 
0 0 11 -25 22 34 36 48 47 24 50 64 24 31 32 49 
0 0 28 -19 46 63 65 77 77 44 72 84 47 43 43 71 
0 0 51 -2 65 79 75 96 96 38 75 99 70 28 46 76 
0 0 10 -33 53 60 58 83 76 36 63 82 57 22 46 54 
0 0 19 -40 9 0 18 23 32 6 29 30 4 -9 14 17 
0 0 6 -53 4 -6 17 7 41 4 17 23 4 -10 18 17 
0 0 -2 -56 9 -9 1 -3 35 1 9 16 9 2 22 2 
0 0 -53 -71 12 -15 0 2 33 4 12 12 12 7 22 -5 
0 0 -49 -66 -3 -24 -16 -10 17 -18 -7 0 -6 -28 12 -15 
0 0 -59 -70 1 -9 -9 0 30 -8 -11 9 5 -19 10 -8 
0 0 -58 -65 1 -5 9 13 44 9 4 16 22 9 -11 -4 
0 0 -70 -57 -5 -7 11 9 33 4 6 14 20 9 -12 -11 
0 0 -73 -60 -17 -24 -19 -18 1 -5 -18 -2 -1 -4 -2 -31 
0 0 -54 -62 -15 -23 -15 -15 11 -6 -18 1 -3 -3 -9 -23 
0 0 -58 -66 -1 9 18 22 39 -3 11 32 20 0 -11 3 
0 0 -44 -69 -17 -5 -3 11 10 -21 -2 14 7 -7 -4 -16 
0 0 -33 -78 -23 -22 -12 2 3 -13 -11 -2 -6 -9 1 -21 
0 0 1 -53 -14 -6 11 14 15 -10 0 18 1 -16 -11 1 
0 0 -34 -52 -5 19 33 40 23 1 15 44 26 -11 -4 15 
0 0 -21 -64 -21 -27 -7 3 -1 -14 -7 2 1 -12 -5 -15 
0 0 -27 -83 -21 -46 -27 -16 -5 -20 -23 -20 -8 -11 1 -26 
0 0 -19 -66 -32 -41 -35 -21 -32 -44 -38 -25 -9 -30 -11 -38 
0 0 -51 -88 -35 -32 -19 -6 -18 -36 -30 -19 -7 -31 -15 -27 
0 0 -41 -93 -39 -46 -19 -15 -6 -29 -25 -31 -18 -33 -29 -26 
0 0 -56 -90 -26 -25 -5 5 -3 -11 -14 -8 9 -9 -10 -20 
0 0 -39 -76 -28 -29 -12 -1 -13 -31 -27 -5 0 -16 -11 -29 
0 0 -73 -97 -28 -40 -8 -13 4 -32 -34 -17 -11 -23 -25 -25 
0 0 -57 -91 -31 -42 -17 -23 -12 -16 -30 -30 -14 -14 -32 -31 
0 0 -46 -77 -28 -24 -16 -9 -21 2 -22 -20 -3 4 -8 -32 
0 0 -46 -76 -36 -31 -19 -16 -24 -7 -36 -20 -10 -7 -1 -37 
0 0 -52 -69 -29 -28 -3 -14 -10 -5 -29 -5 1 -1 -4 -23 
0 0 -48 -54 -9 -13 23 5 7 -3 1 16 13 6 0 8 
0 0 -35 -53 -22 -36 12 -13 -9 -21 -8 -3 -9 -18 -1 2 
0 0 -47 -73 -40 -55 -21 -37 -30 -26 -30 -20 -25 -28 -15 -26 
0 0 -31 -72 -38 -48 -23 -38 -29 -41 -28 -15 -29 -22 -26 -24 
0 0 -40 -75 -13 -23 22 -7 5 -33 -1 12 -10 -10 1 13 
0 0 -3 -56 -10 -28 22 -9 6 -22 0 5 -16 -5 11 14 
0 0 -19 -57 -10 -25 6 -13 0 0 2 5 -9 16 3 12 
0 0 -15 -60 -13 -38 0 -33 -6 -6 2 -4 -8 12 -8 13 
0 0 -20 -73 13 -15 37 -6 29 7 26 15 9 15 10 31 
0 0 20 -46 11 -5 38 2 20 -7 34 21 3 7 -10 27 
0 0 11 -47 -3 -2 35 -1 12 -10 31 32 1 12 -12 36 
0 0 18 -54 -18 -24 16 -30 2 -15 7 11 -16 1 0 20 
0 0 -18 -70 -7 -24 19 -27 8 -7 4 -6 -6 6 8 12 
0 0 -7 -52 11 -26 19 -23 11 -16 14 -7 -5 11 2 18 
0 0 -27 -54 24 -18 30 -11 35 -7 23 10 -5 9 22 26 
0 0 -47 -64 -12 -33 6 -23 4 -21 -6 -7 -16 -29 8 -6 
0 0 -76 -71 -43 -41 -13 -31 -37 -26 -26 -23 -15 -38 -23 -23 
0 0 -57 -62 -29 -29 -16 -28 -31 -11 -17 -23 -7 -8 -20 -22 
0 0 -48 -54 -2 -16 -8 -24 2 -5 -2 -17 -4 12 13 -18 
0 0 -82 -69 5 -21 2 -20 17 -18 4 -12 -18 -6 13 -3 
0 0 -68 -83 -11 -41 -2 -32 -5 -27 -10 -21 -42 -12 -9 -7 
0 0 -46 -80 -24 -42 -6 -37 -22 -24 -21 -22 -31 -11 -21 -18 
0 0 -20 -58 -35 -37 -3 -30 -27 -47 -22 -20 -24 -26 -31 -12 
0 0 -43 -70 -23 -8 30 5 -2 -22 -2 10 -5 -9 -17 10 
0 0 -13 -54 -6 -2 42 19 6 10 4 19 12 2 -13 6 
0 0 -13 -51 2 3 46 35 12 14 11 25 26 0 -18 17 
0 0 6 -57 -30 -27 9 3 -19 -29 -12 -2 -7 -19 -29 4 
0 0 -35 -87 -29 -29 0 -7 -18 -10 -19 -8 -5 -6 -4 -6 
0 0 -33 -72 -12 -22 7 3 -4 22 -8 -6 21 3 -4 -6 
0 0 -32 -71 -6 -9 25 23 14 38 6 6 41 17 -8 1 
0 0 -18 -71 -28 -26 4 -2 -18 12 -16 -16 6 -1 -25 -22 
0 0 -75 -90 -29 -16 8 3 -20 14 -18 -18 5 -8 -31 -15 
0 0 -72 -88 -40 -20 -6 -2 -25 3 -20 -18 7 -16 -35 -20 
0 0 -70 -79 -40 -24 -21 -9 -33 -2 -28 -12 3 -6 -21 -31 
0 0 -65 -65 -31 -28 -21 -14 -47 0 -33 -21 -7 7 -26 -34 
0 0 -76 -72 -26 -24 -6 -12 -40 11 -19 -22 -2 15 -32 -25 
0 0 -70 -81 -34 -31 -11 -18 -38 10 -13 -19 -6 1 -29 -35 
0 0 -54 -71 -30 -31 -8 -16 -42 13 -22 -16 -9 0 -21 -35 
0 0 -58 -64 -21 -16 2 -10 -43 12 -24 -12 0 17 -15 -21 
0 0 -32 -55 -25 -20 -8 -22 -46 -6 -20 -8 -17 34 -1 -15 
0 0 -16 -49 -10 -12 4 -8 -24 2 7 19 -15 34 10 5 
0 0 18 -34 -9 -19 17 -13 -28 -11 15 23 -12 -1 -18 12 
0 0 -7 -41 -6 -18 28 -21 -34 -22 15 29 -17 -13 -19 15 
0 0 5 -32 -2 -24 20 -29 -42 -42 12 24 -48 -14 -11 10 
0 0 -4 -41 9 -4 41 1 -28 -35 25 38 -32 -12 -27 30 
0 0 16 -30 -4 -9 31 -2 -43 -50 14 30 -20 -29 -54 29 
0 0 3 -33 7 4 35 9 -34 -44 22 41 -2 -21 -19 31 
0 0 18 -20 11 17 43 16 -35 -34 32 45 -1 -15 -8 33 
0 0 -1 -28 18 39 64 37 -27 12 43 57 20 19 2 52 
0 0 10 -31 6 12 42 10 -42 15 25 28 10 16 5 27 
0 0 -39 -62 -5 -7 31 -10 -47 -4 11 -1 4 -11 -3 -1 
0 0 -42 -70 -11 -13 30 -15 -51 -13 7 -11 -4 -25 -18 -7 
0 0 -40 -67 -9 -13 26 -9 -38 -2 10 -9 -8 -6 -4 1 
0 0 -44 -72 -26 -38 -4 -28 -58 -21 -6 -36 -22 -20 -15 -18 
0 0 -73 -87 -29 -50 -5 -36 -62 -34 -17 -53 -21 -40 -28 -35 
0 0 -75 -87 -12 -37 17 -24 -37 -19 -10 -38 -19 -31 -17 -31 
0 0 -54 -74 -18 -37 13 -27 -55 -20 -11 -31 -32 -27 -21 -22 
0 0 -55 -62 -16 -25 18 -17 -67 -19 -1 -19 -11 -22 -20 -7 
0 0 -22 -40 4 -7 41 -4 -32 1 13 1 7 16 2 3 
0 0 -40 -55 0 -2 42 -2 -22 13 9 14 -4 30 22 6 
0 0 -29 -61 -34 -27 8 -23 -67 -15 -14 -9 -27 -18 -5 -12 
0 0 -27 -61 -26 -16 26 -10 -47 -6 -4 -5 -13 -21 -40 -4 
0 0 -6 -46 -23 -19 27 -16 -41 -4 -10 -14 -24 -8 -58 -7 
0 0 -35 -71 -19 -20 21 -11 -48 12 -9 -13 -10 2 -18 -5 
0 0 -6 -70 -17 -31 12 -27 -51 11 -12 -19 -6 7 -1 -13 
0 0 -7 -70 -15 -25 22 -28 -45 -1 -10 -15 -15 5 -16 -6 
0 0 -2 -61 -36 -46 4 -40 -74 -45 -22 -32 -47 -43 -34 -19 
0 0 -44 -78 -28 -39 13 -25 -64 -37 -18 -21 -36 -36 -11 -16 
0 0 -44 -72 -24 -42 11 -26 -65 -36 -22 -20 -30 -25 -21 -19 
0 0 -58 -63 -14 -33 23 -14 -50 -39 -13 -13 -31 -34 -24 -10 
0 0 -49 -58 -19 -33 15 -19 -48 -49 -17 -17 -49 -40 -15 -13 
0 0 -67 -69 -29 -23 6 -15 -61 -42 -23 -18 -43 -17 -12 -15 
0 0 -65 -60 -28 -10 5 -6 -74 -34 -19 -11 -29 -7 -23 -20 
0 0 -56 -55 -22 -11 14 -7 -66 -33 -15 -6 -32 -7 -17 -21 
0 0 -65 -64 -23 -13 12 0 -63 -27 -13 -7 -29 -13 -20 -14 
0 0 -50 -57 -14 5 17 23 -52 -4 -3 1 0 -5 -25 -2 
0 0 -46 -49 8 33 43 42 -16 24 12 23 24 23 2 8 
0 0 -26 -49 1 2 19 4 -26 6 -6 -4 -8 18 9 -13 
0 0 -36 -66 -3 -11 7 -4 -31 0 -13 -17 -17 0 -8 -21 
0 0 -8 -49 2 2 22 9 -23 4 -6 -12 -2 -1 -26 -13 
0 0 -31 -54 5 12 33 17 -13 25 4 -5 14 10 -16 -7 
0 0 -19 -53 -18 -18 1 -19 -46 -2 -18 -28 -17 -17 -21 -33 
0 0 -34 -63 -12 -15 5 -13 -43 -22 -14 -22 -18 -21 -16 -25 
0 0 -24 -52 -14 -18 -6 -15 -53 -36 -14 -21 -23 -20 -21 -25 
0 0 -39 -62 -12 -6 -11 -5 -50 -9 -14 -9 -15 -5 -6 -27 
0 0 -14 -44 -1 -1 -6 -3 -40 10 -11 -7 -10 7 10 -25 
0 0 -50 -53 11 13 12 9 -15 20 5 -3 12 27 24 -13 
0 0 -44 -63 -7 5 -8 1 -30 2 -10 -12 7 5 -3 -24 
0 0 -42 -64 -6 2 -6 5 -32 6 -11 -7 1 -4 -13 -13 
0 0 -45 -47 -9 -21 -8 -13 -37 -9 -3 -14 -23 -8 -16 -11 
0 0 -69 -49 -13 -16 6 -10 -26 -15 7 -10 -19 6 -8 -8 
0 0 -57 -54 -6 1 21 5 -20 5 9 -7 2 11 0 9 
0 0 -43 -49 -2 -8 13 -7 -28 1 -1 -16 -2 -12 3 16 
0 0 -58 -51 1 -11 7 -11 -20 -24 -1 -6 -22 -18 4 7 
0 0 -34 -42 12 5 31 15 5 -18 15 10 -15 7 1 17 
0 0 -35 -50 17 14 48 24 12 2 27 11 8 8 -6 33 
0 0 -22 -52 -5 -17 3 -21 -21 -30 1 -20 -19 -29 -29 0 
0 0 -40 -63 -15 -23 -12 -21 -26 -29 -13 -27 -31 -24 -20 -20 
0 0 -19 -66 -26 -35 -20 -24 -40 -31 -27 -42 -40 -16 -8 -28 
0 0 -36 -79 -8 -19 -16 -16 -29 -28 -14 -22 -24 -18 -9 -18 
0 0 -11 -62 -4 -13 -15 -14 -29 -34 -2 -17 -25 -30 -43 -18 
0 0 -12 -69 -13 -8 4 2 -20 -20 4 -26 -18 -29 -43 -10 
0 0 1 -64 -14 -22 -6 -7 -25 -26 -3 -41 -20 -30 -28 -17 
0 0 -23 -67 17 3 16 11 5 8 20 -10 6 -1 -6 7 
0 0 -6 -61 4 -1 14 -9 2 8 16 -20 1 2 -11 5 
0 0 -39 -75 -10 -15 -3 -26 -9 -14 -4 -39 -5 -3 -4 -12 
0 0 -43 -56 -2 -17 2 -10 -8 -18 4 -25 -6 -15 -11 -4 
0 0 -46 -47 3 -8 20 4 6 -5 15 -2 -4 -8 2 20 
0 0 -35 -45 -9 -14 -12 -16 -17 -21 -11 -9 -14 -5 8 5 
0 0 -50 -49 -11 -11 -24 -10 -34 -15 -18 -10 -14 -6 -1 -6 
0 0 -56 -57 -12 -14 -11 -4 -32 -4 -2 -14 -19 -16 -15 -6 
0 0 -43 -60 -11 -14 -12 -16 -25 -17 -2 -17 -22 -15 -14 -4 
0 0 -50 -58 4 4 -2 -4 -13 -6 4 0 -9 -4 -1 17 
0 0 -17 -36 11 6 19 6 -5 -5 16 11 -14 -6 -4 35 
0 0 -22 -44 10 9 19 10 -3 -19 21 22 -12 4 -1 30 
0 0 -6 -45 4 3 -3 -2 -16 -9 11 17 -7 9 7 14 
0 0 -5 -46 12 12 18 14 1 36 24 28 13 19 9 35 
0 0 22 -38 -3 -7 4 -12 -23 6 9 5 -8 8 -12 31 
0 0 -18 -55 -4 -12 -13 -29 -35 -13 1 -11 -16 -2 3 14 
0 0 -3 -32 7 -17 -11 -25 -22 -2 12 -14 -18 -21 0 9 
0 0 5 -30 30 10 25 9 17 1 37 15 -1 -11 -20 33 
0 0 7 -40 6 -10 -2 -12 -9 -40 18 -2 -18 -11 -35 9 
0 0 -44 -63 -6 -21 -24 -11 -22 -2 4 -12 -16 8 1 1 
0 0 -29 -48 3 -7 -18 3 -18 28 7 3 -13 14 4 21 
0 0 -41 -47 13 15 -3 12 -3 -2 15 20 -11 6 -5 30 
0 0 -33 -50 -6 -16 -33 -13 -21 -34 -3 -11 -35 -20 -8 0 
0 0 -42 -57 -11 -26 -42 -22 -24 -15 -9 -26 -33 -16 -6 -5 
0 0 -37 -47 0 -3 -17 -15 -6 3 7 -2 -10 0 -6 13 
0 0 -33 -31 9 11 1 7 15 19 22 19 6 14 11 29 
0 0 -31 -30 13 2 -7 14 13 2 22 10 -2 10 13 33 
0 0 -27 -36 8 -9 -17 -10 3 -33 12 -10 -14 -8 -4 23 
0 0 -42 -43 10 3 -4 -5 7 -5 17 0 -1 -4 -4 21 
0 0 -10 -25 14 7 -4 7 8 26 15 7 11 22 4 26 
0 0 -12 -38 5 3 -25 2 1 17 -3 -6 6 27 -1 16 
0 0 -3 -47 -13 -12 -49 -15 -20 -10 -21 -34 -17 -10 -12 -11 
0 0 -34 -54 5 3 -19 6 7 7 -1 -17 0 -9 3 4 
0 0 -18 -42 -5 -17 -35 -19 -5 -10 -16 -31 -18 -11 -12 -11 
0 0 -35 -63 -21 -27 -53 -35 -19 -3 -25 -43 -22 -8 -14 -33 
0 0 -22 -61 -27 -28 -52 -31 -24 -2 -25 -50 -12 -12 -19 -36 
0 0 -30 -75 -21 -19 -30 -15 -14 -6 -21 -46 3 -3 -14 -21 
0 0 -7 -73 -35 -50 -54 -46 -41 -33 -39 -67 -28 -21 -17 -36 
0 0 -34 -74 -24 -38 -35 -35 -21 -16 -27 -49 -18 -18 -8 -19 
0 0 -31 -66 -21 -33 -27 -29 -10 -16 -24 -46 -20 -30 -28 -18 
0 0 -58 -84 -23 -49 -47 -40 -20 -38 -35 -66 -35 -44 -25 -39 
0 0 -58 -76 -23 -59 -59 -50 -27 -47 -31 -77 -31 -36 -22 -45 
0 0 -56 -58 -6 -28 -21 -25 -1 -13 -3 -50 -7 -6 -33 -14 
0 0 -42 -53 12 -7 3 -2 13 11 8 -23 2 -8 -21 12 
0 0 -48 -53 8 -15 -14 -6 2 1 -9 -28 3 -26 -2 6 
0 0 -62 -55 -9 -17 -27 -10 -10 -15 -14 -34 -1 -27 -22 -12 
0 0 -45 -68 -33 -38 -33 -27 -24 -35 -20 -41 -31 -39 -39 -25 
0 0 -55 -85 -40 -52 -33 -36 -28 -36 -26 -45 -38 -47 -29 -18 
0 0 -33 -67 -31 -49 -39 -33 -30 -25 -29 -51 -28 -34 -20 -15 
0 0 -29 -63 -7 -25 -28 -11 -9 -14 -21 -28 -14 -19 3 -7 
0 0 10 -48 -6 -26 -32 -16 -10 -17 -23 -22 -20 -7 6 -8 
0 0 -18 -62 -4 -23 -33 -16 -7 6 -18 -24 -9 15 -1 -11 
0 0 -9 -70 -18 -47 -60 -45 -27 -24 -37 -56 -34 -33 -15 -40 
0 0 -11 -71 -10 -39 -51 -36 -16 -35 -33 -48 -23 -53 4 -32 
0 0 8 -41 -6 -31 -42 -24 -12 -18 -27 -36 -8 -17 2 -15 
0 0 -28 -62 -9 -22 -31 -11 4 6 -20 -25 -11 1 -11 -7 
0 0 -24 -71 -30 -39 -55 -30 -11 -26 -36 -49 -41 -44 -29 -32 
0 0 -52 -68 -31 -35 -52 -21 -16 -31 -38 -53 -24 -36 -13 -39 
0 0 -54 -59 -33 -44 -59 -25 -27 -27 -47 -50 -22 -23 -17 -41 
0 0 -63 -67 -11 -26 -44 -3 -3 -2 -28 -29 -12 -1 -9 -10 
0 0 -44 -57 2 -4 -22 19 18 11 -4 -16 12 12 -9 15 
0 0 -49 -54 -11 3 -10 20 18 10 -6 -10 25 3 -23 13 
0 0 -53 -61 -15 -8 -26 9 4 17 -14 -10 12 -2 -15 -4 
0 0 -54 -72 -16 -29 -44 -11 -9 17 -26 -37 4 10 0 -24 
0 0 -72 -84 -21 -40 -40 -25 -8 -2 -34 -60 3 9 -11 -35 
0 0 -37 -75 -17 -42 -38 -28 -7 -23 -35 -55 -11 -8 -15 -33 
0 0 -17 -80 -7 -33 -37 -15 0 -11 -24 -37 -9 -8 5 -18 
0 0 -4 -70 -20 -35 -39 -16 -9 -14 -30 -50 -10 -15 0 -14 
0 1 -34 -64 -22 -18 -31 -3 -15 -17 -28 -44 8 -25 0 -11 
0 1 1 -47 -22 -30 -47 -17 -30 -33 -27 -33 -2 -30 -7 -15 
0 0 -5 -54 -3 -4 2 27 9 -16 2 11 2 -9 -2 35 
0 0 5 -39 -4 20 48 86 19 -27 14 41 -6 -16 -16 75 
0 0 -7 -45 -10 31 61 120 0 -30 8 77 1 -12 -10 87 
0 0 14 -34 -20 11 56 112 -30 -27 -13 87 -8 -8 -7 100 
0 0 2 -24 4 55 120 185 0 12 18 133 17 23 6 173 
0 0 24 -10 10 88 152 244 -2 19 45 176 28 40 6 197 
0 0 -8 -32 -5 71 143 233 -18 9 25 193 11 36 19 176 
0 0 1 -29 -11 38 137 205 -25 -19 -9 181 -18 -8 16 197 
0 0 -2 -18 18 54 163 240 7 -15 13 196 16 -19 5 240 
0 0 -13 -17 21 70 170 258 24 2 54 210 42 -5 -18 211 
0 0 -21 -19 0 58 164 225 17 6 62 191 15 4 -29 175 
0 0 -18 -25 -18 37 140 180 -3 -7 33 150 -8 -7 -41 165 
0 0 -23 -30 -14 34 120 157 -4 -4 21 121 10 -11 -35 153 
0 0 -30 -24 24 65 141 166 39 29 63 133 34 13 2 169 
0 0 8 -12 21 54 118 134 32 13 51 110 9 23 5 157 
0 0 -2 -40 -20 10 42 77 -10 -25 -20 56 -14 -3 -31 91 
0 0 19 -42 -21 -14 4 37 -17 -43 -29 24 -24 -37 -37 59 
0 0 -16 -43 12 8 32 41 12 -8 22 37 -8 -10 7 86 
0 0 -22 -43 -21 -13 0 9 -28 -12 -3 12 -20 12 -18 51 
0 0 -18 -63 -35 -27 -27 -4 -51 -17 -40 -16 -18 -3 -42 11 
0 0 17 -56 -36 -43 -50 -26 -56 -34 -65 -53 -28 -48 -37 -13 
0 0 -17 -71 -36 -34 -42 -21 -25 -16 -57 -47 -11 -33 -28 -6 
0 0 1 -65 -31 -33 -48 -21 -9 -8 -43 -39 -12 -6 -35 -6 
0 0 -9 -65 -12 -23 -47 -18 0 -1 -31 -44 0 4 -11 -11 
0 0 -24 -51 -20 -40 -52 -35 -14 -10 -36 -60 -1 -14 -20 -29 
0 0 -64 -56 -15 -33 -27 -17 7 -3 -20 -41 -1 -12 -33 -20 
0 0 -54 -54 -17 -24 -33 -19 3 -12 -21 -50 -10 -20 -36 -27 
0 0 -59 -63 -32 -35 -56 -44 -21 -29 -39 -74 -10 -31 -28 -39 
0 0 -51 -68 -27 -50 -57 -56 -17 -32 -36 -69 -11 -30 -28 -28 
0 0 -45 -58 15 -10 -16 -19 33 13 -2 -33 4 8 -7 3 
0 0 -37 -30 65 50 50 38 96 77 49 16 55 60 48 44 
0 0 11 -2 99 73 89 68 128 108 82 56 97 109 108 87 
0 0 15 -7 114 94 97 98 137 128 91 79 111 132 145 111 
0 0 29 7 121 118 104 123 154 154 102 84 124 131 159 117 
0 0 44 29 159 155 147 157 210 193 142 128 166 167 203 158 
0 0 93 54 178 152 151 151 212 179 146 144 153 193 237 172 
0 0 70 40 186 162 153 172 217 191 155 143 143 194 251 175 
0 0 103 69 206 191 189 209 254 236 194 161 187 191 230 206 
0 0 120 97 247 240 252 254 310 267 238 227 243 222 228 257 
0 0 131 109 234 231 232 232 284 225 222 231 202 228 237 240 
0 0 96 84 235 235 227 234 280 243 230 229 207 247 274 238 
0 0 102 91 252 238 241 241 300 256 242 231 231 238 274 245 
0 0 74 100 265 254 261 257 332 233 246 244 222 217 269 254 
0 0 97 124 271 273 266 269 328 237 259 256 222 234 284 271 
0 0 88 131 288 304 292 304 336 304 291 287 272 298 320 302 
0 0 82 127 276 295 284 305 332 300 287 289 265 274 307 289 
0 0 82 123 271 284 279 298 329 265 272 284 242 229 299 284 
0 0 108 138 290 294 291 302 337 278 285 294 260 253 313 309 
0 0 117 148 303 305 306 308 352 308 303 305 276 281 312 326 
0 0 98 137 299 300 321 309 357 301 302 309 268 260 299 325 
0 0 126 143 297 283 327 296 354 278 298 299 251 255 307 318 
0 0 142 151 318 300 337 304 370 297 322 307 264 293 339 322 
0 0 163 159 316 318 337 313 372 303 325 314 271 292 333 322 
0 0 136 141 300 326 343 329 367 303 314 325 274 273 302 326 
0 0 164 147 278 290 309 301 324 286 289 295 247 252 281 302 
0 0 156 149 289 286 293 293 325 300 291 287 252 263 314 292 
0 0 166 161 297 295 294 295 347 290 290 288 261 276 327 290 
0 0 151 139 314 322 323 322 376 300 306 309 282 284 331 307 
0 0 163 145 305 309 303 304 348 304 295 296 262 265 321 294 
0 0 136 143 296 304 285 297 334 312 286 294 259 266 319 292 
0 0 148 142 285 292 270 290 320 281 273 288 255 257 309 285 
0 0 112 131 299 303 284 305 341 284 271 290 268 278 330 287 
0 0 115 152 313 310 288 307 356 323 286 286 279 301 349 288 
0 0 119 150 321 310 298 300 360 335 312 277 281 289 352 288 
0 0 120 138 314 287 296 277 349 285 307 256 249 249 333 268 
0 0 93 138 315 278 307 276 363 273 300 259 241 258 323 274 
0 0 107 144 314 282 315 282 365 309 308 269 260 282 318 293 
0 0 122 134 297 263 287 261 338 304 289 251 257 271 316 268 
0 0 88 122 297 267 282 268 344 282 279 259 265 260 314 265 
0 0 128 144 313 298 321 299 371 294 307 296 283 265 317 304 
0 0 153 138 310 297 333 295 366 308 318 297 268 274 335 298 
0 0 161 127 284 240 287 246 327 286 285 243 233 271 321 248 
0 0 134 120 298 257 305 264 350 312 286 253 268 280 306 269 
0 0 167 138 303 287 317 272 360 319 287 266 276 262 302 284 
0 0 147 128 299 281 304 272 354 316 286 262 273 245 315 266 
0 0 157 146 297 263 288 277 348 309 283 253 266 249 314 247 
0 0 139 132 307 286 295 299 368 315 283 263 270 280 332 250 
0 0 140 127 290 267 254 267 332 288 248 238 251 263 326 237 
0 0 116 137 303 276 262 280 335 302 262 262 272 268 340 270 
0 0 128 153 297 281 272 278 343 282 278 278 256 262 329 275 
0 0 90 127 278 272 269 260 338 263 270 263 235 246 302 261 
0 0 94 127 283 269 284 265 332 281 276 258 247 243 287 270 
0 0 102 131 299 285 308 278 336 300 292 270 260 258 303 275 
0 0 111 124 289 260 280 243 316 272 266 243 234 246 311 243 
0 0 95 131 301 254 282 245 327 277 263 242 241 257 322 250 
0 0 85 140 311 281 318 284 347 316 298 267 273 293 323 272 
0 0 112 140 288 267 302 267 326 305 290 248 262 293 333 249 
0 0 122 139 292 260 283 257 327 292 281 244 242 278 355 256 
0 0 156 160 305 289 306 287 345 314 298 275 257 282 329 297 
0 0 157 161 296 314 332 314 343 341 309 304 288 289 298 314 
0 0 195 171 285 284 318 287 321 304 289 282 256 277 302 293 
0 0 172 166 311 288 330 293 345 286 302 289 246 273 319 305 
0 0 169 175 297 292 314 296 345 276 296 295 252 251 289 295 
0 0 151 161 279 291 298 295 333 284 278 295 262 258 282 275 
0 0 169 163 273 268 270 264 296 268 261 262 237 257 276 248 
0 0 156 157 284 282 284 280 307 274 278 270 244 256 280 259 
0 0 174 175 280 291 292 292 321 281 275 283 251 259 285 273 
0 0 148 172 286 316 314 307 332 306 276 295 277 295 317 295 
0 0 160 189 283 324 320 315 326 299 290 304 277 288 317 305 
0 0 136 182 275 322 322 327 333 293 306 316 269 263 295 310 
0 0 116 161 262 292 297 297 313 282 289 290 250 251 280 289 
0 0 97 151 269 274 291 275 309 261 274 273 239 243 281 277 
0 0 130 167 283 279 304 286 333 259 284 286 240 226 276 283 
0 0 130 165 283 283 304 286 328 281 292 281 242 253 301 283 
0 0 84 136 269 263 286 260 293 271 275 257 225 266 327 262 
0 0 109 140 260 242 276 252 290 240 262 246 215 226 303 245 
0 0 141 149 269 257 279 272 313 254 271 250 235 217 274 253 
0 0 173 155 273 267 270 264 301 269 267 239 231 243 285 255 
0 0 148 141 287 280 286 277 307 278 271 261 246 257 314 263 
0 0 162 140 265 246 269 253 291 244 251 243 230 224 288 241 
0 0 145 115 243 214 253 221 276 224 239 199 198 204 265 230 
0 0 171 121 240 208 249 215 267 215 241 186 181 197 269 229 
0 0 153 124 259 248 280 258 297 248 259 231 226 226 290 244 
0 0 149 129 246 234 262 241 283 250 239 210 228 230 278 223 
0 0 128 113 241 228 246 235 277 254 228 185 227 228 285 205 
0 0 138 122 238 224 237 235 263 236 226 186 212 219 279 192 
0 0 95 117 250 236 276 246 289 250 250 223 214 237 276 224 
0 0 106 132 253 233 294 245 301 258 269 242 213 241 264 262 
0 0 111 139 239 233 272 246 270 247 260 238 212 232 257 269 
0 0 117 141 218 226 242 229 232 233 234 222 196 222 246 248 
0 0 102 137 228 236 258 241 262 239 241 240 207 228 250 256 
0 0 97 128 227 225 258 242 275 223 249 244 203 200 237 257 
0 0 103 114 205 191 231 206 238 199 222 201 160 176 226 232 
0 0 100 107 212 198 242 203 239 209 220 192 164 199 246 227 
0 0 130 116 227 211 260 215 256 226 239 203 206 213 244 232 
0 0 136 108 229 204 254 215 255 240 246 198 221 208 225 231 
0 0 166 123 217 191 233 201 237 222 225 189 197 210 211 221 
0 0 157 138 226 231 257 244 258 239 236 235 222 231 229 249 
0 0 180 162 223 245 262 262 257 244 243 254 232 208 225 270 
0 0 157 143 216 239 252 254 247 224 235 247 216 183 208 262 
0 0 176 142 205 221 227 228 222 186 215 227 181 179 194 229 
0 0 157 128 211 228 231 237 227 209 219 230 186 200 224 231 
0 0 148 125 195 210 215 216 216 210 204 206 179 191 226 215 
0 0 115 114 191 213 219 218 217 202 205 203 180 192 214 207 
0 0 133 131 184 210 204 210 195 186 194 198 168 184 203 198 
0 0 96 121 184 216 198 210 202 208 183 202 185 186 216 199 
0 0 92 108 174 201 181 202 198 218 171 186 188 175 207 178 
0 0 90 106 179 185 178 195 192 208 177 177 176 178 206 171 
0 0 95 114 179 173 174 170 184 184 182 165 155 178 205 167 
0 0 80 101 173 173 168 160 178 178 174 153 151 176 208 167 
0 0 76 87 170 165 162 165 163 193 170 149 164 164 203 169 
0 0 100 100 175 160 170 165 171 203 176 148 179 171 194 172 
0 0 102 105 187 183 186 178 201 208 193 158 186 193 195 185 
0 0 116 96 173 176 171 170 185 193 178 143 165 171 190 169 
0 0 101 79 173 172 172 174 181 191 174 140 177 160 196 158 
0 0 137 97 180 177 177 178 183 171 176 148 172 168 187 165 
0 0 126 96 179 188 177 183 176 171 174 163 161 160 179 177 
0 0 130 93 147 153 142 151 133 171 150 135 149 131 158 146 
0 0 100 63 144 139 138 145 130 177 147 117 159 149 168 131 
0 0 116 71 151 132 136 140 133 158 143 111 142 144 167 128 
0 0 116 79 160 156 156 159 155 175 155 137 159 126 162 144 
0 0 144 92 158 160 159 153 157 179 162 139 169 135 160 150 
0 0 100 73 173 156 171 163 169 182 174 138 168 165 186 159 
0 0 81 73 163 118 147 138 147 160 161 112 130 143 180 136 
0 0 71 71 158 110 143 123 142 162 155 101 117 140 168 125 
0 0 85 66 143 106 139 103 128 148 142 86 117 137 159 109 
0 0 46 48 124 91 129 87 109 120 133 69 111 112 149 91 
0 0 39 52 115 77 117 82 97 114 131 64 86 91 122 87 
0 0 57 73 129 104 130 109 111 146 141 87 100 132 130 111 
0 0 48 76 135 131 139 130 114 159 150 112 136 160 152 128 
0 0 63 75 132 127 135 123 108 146 146 109 139 143 149 123 
0 0 86 91 154 156 161 153 141 186 164 141 160 155 150 141 
0 0 125 111 148 155 161 156 140 194 161 148 165 162 142 143 
0 0 96 76 125 121 136 121 112 149 139 111 133 142 130 120 
0 0 113 68 119 97 112 92 98 118 123 78 100 124 128 96 
0 0 107 74 126 116 118 117 114 152 134 101 126 139 144 102 
0 0 123 85 88 90 94 98 74 124 108 85 107 107 105 83 
0 0 89 61 82 92 96 89 67 94 97 82 99 87 100 79 
0 0 92 72 98 96 91 88 79 95 104 86 101 98 128 80 
0 0 89 66 102 94 88 100 82 127 109 87 102 127 138 84 
0 0 111 64 83 84 69 85 55 111 92 70 79 109 104 69 
0 0 53 45 89 96 72 95 74 108 92 81 96 99 101 71 
0 0 35 50 86 71 64 82 64 106 92 74 90 97 102 62 
0 0 41 56 84 68 76 71 53 103 100 71 75 102 105 63 
0 0 63 66 89 85 82 69 62 92 105 69 84 89 102 71 
0 0 41 58 99 96 89 83 79 102 109 67 106 95 109 79 
0 0 32 44 93 78 86 72 71 102 103 57 95 102 104 66 
0 0 51 44 83 57 82 55 65 81 91 46 76 89 84 56 
0 0 53 47 84 64 90 70 68 81 94 49 81 66 67 66 
0 0 65 46 78 80 86 79 58 90 96 50 94 68 65 67 
0 0 56 25 79 88 85 83 71 98 98 54 101 93 78 66 
0 0 80 27 71 61 79 64 67 75 85 35 70 87 74 58 
0 0 61 26 65 53 75 55 57 62 76 32 60 59 73 49 
0 0 77 36 61 55 51 45 44 48 66 28 58 38 55 33 
0 0 47 21 66 78 58 68 56 70 71 44 67 60 52 39 
0 0 54 23 41 50 42 39 28 62 51 22 47 60 47 26 
0 0 55 7 38 28 32 13 23 51 45 10 46 53 50 20 
0 0 75 10 35 11 16 -4 19 29 36 -3 27 31 34 10 
0 0 39 6 32 13 22 8 22 28 36 8 29 29 42 11 
0 0 56 23 25 3 11 2 8 17 27 9 33 30 47 0 
0 0 35 15 33 26 19 12 23 43 34 14 52 49 43 8 
0 0 25 11 19 20 9 3 11 52 28 0 44 32 20 0 
0 0 6 0 10 -4 1 -7 -1 29 23 -11 27 20 22 -11 
0 0 12 -2 7 -17 -9 -18 -10 4 15 -24 11 28 28 -23 
0 0 1 4 14 -3 3 -10 0 18 22 -27 14 39 34 -14 
0 0 -2 6 26 5 22 -6 13 28 41 -19 19 28 28 -2 
0 0 5 0 17 -6 13 -19 3 14 33 -26 17 13 11 -12 
0 0 -9 -15 5 -16 2 -28 -11 2 17 -41 14 11 4 -26 
0 0 23 -9 7 -21 12 -29 -3 -12 15 -44 -3 10 2 -20 
0 0 25 -12 18 4 36 -1 21 11 39 -4 14 8 7 5 
0 0 47 2 13 5 19 3 0 21 41 8 32 13 7 2 
0 0 42 11 23 22 20 10 0 30 42 8 45 37 26 12 
0 0 77 36 13 29 18 3 -11 20 35 3 30 30 24 17 
0 0 51 18 5 33 32 18 -13 41 41 20 42 35 25 25 
0 0 56 9 0 2 21 -7 -21 34 26 -1 33 42 17 9 
0 0 41 -1 13 -1 24 -14 5 24 26 -5 35 43 34 11 
0 0 64 14 7 -3 13 -16 1 5 31 -3 21 16 26 10 
1 0 34 2 12 4 23 -6 -1 8 37 1 10 18 9 18 
0 0 21 -4 2 -10 6 -27 -20 -8 12 -17 -3 16 -10 7 
0 0 -3 -9 -5 -8 -5 -18 -25 8 5 -6 15 28 2 0 
0 0 15 0 -12 -19 -17 -25 -35 14 4 -18 5 20 -5 -15 
0 0 -8 -21 -11 -29 -16 -49 -37 3 -1 -45 -16 13 -3 -22 
0 0 -25 -38 -20 -31 -20 -58 -46 -9 -11 -52 -11 5 1 -25 
0 0 -19 -37 -28 -29 -19 -45 -41 -10 -11 -45 7 -7 -25 -24 
0 0 -18 -39 -23 -40 -20 -49 -34 -15 -9 -53 -11 -14 -44 -29 
1 0 -17 -45 -27 -54 -31 -67 -47 -30 -18 -72 -43 -17 -21 -45 
0 0 -27 -52 -31 -42 -27 -56 -47 -24 -18 -68 -29 -14 -11 -50 
0 0 13 -40 -25 -34 -19 -47 -32 -8 -15 -65 -8 -6 -35 -49 
0 0 14 -38 -19 -22 -10 -34 -22 21 -4 -51 12 12 -36 -41 
0 0 21 -23 -37 -32 -29 -42 -49 3 -14 -61 -4 -3 -35 -46 
0 0 1 -27 -20 -23 -15 -33 -33 -2 -5 -48 2 -1 -23 -24 
0 0 38 -20 -18 -39 -20 -56 -35 -15 -15 -52 -17 2 -27 -32 
0 0 19 -38 -30 -42 -30 -58 -47 -18 -22 -54 -18 -8 -27 -42 
0 0 16 -28 -33 -42 -40 -52 -62 -29 -21 -50 -13 -25 -38 -39 
0 0 3 -37 -23 -20 -28 -34 -44 -14 -19 -26 -4 -19 -38 -25 
0 0 20 -43 -53 -45 -58 -64 -67 -34 -48 -54 -34 -42 -47 -55 
0 0 -19 -63 -55 -56 -60 -69 -70 -43 -46 -70 -28 -42 -29 -67 
0 0 -2 -55 -43 -52 -55 -63 -61 -40 -42 -59 -22 -20 -30 -66 
0 0 -9 -51 -39 -43 -55 -57 -50 -16 -53 -48 -29 12 -19 -61 
0 0 -13 -47 -54 -67 -84 -86 -77 -29 -67 -81 -39 -15 -24 -75 
0 0 -26 -52 -59 -72 -89 -94 -92 -48 -57 -93 -29 -46 -50 -78 
0 0 -15 -44 -59 -59 -75 -75 -86 -45 -50 -79 -23 -45 -62 -69 
0 0 -17 -24 -50 -44 -53 -56 -60 -30 -36 -58 -14 -28 -54 -45 
0 0 -30 -23 -42 -33 -41 -45 -45 -24 -13 -35 -14 -30 -69 -20 
0 0 -2 -20 -38 -23 -39 -37 -49 -18 -10 -21 -17 -20 -68 -14 
0 0 -5 -17 -23 2 -24 -11 -40 4 1 -1 13 13 -28 -11 
0 0 16 -12 -26 -4 -32 -20 -42 -13 3 -10 5 9 -32 -18 
0 0 11 -28 -19 -8 -25 -21 -32 -27 9 -3 -22 3 -38 -12 
0 0 39 -16 -27 -30 -34 -37 -54 -50 -3 -13 -43 -7 -34 -31 
0 0 9 -33 -41 -38 -51 -52 -74 -43 -11 -25 -31 -9 -33 -47 
0 0 29 -35 -55 -57 -77 -84 -86 -48 -29 -53 -44 -29 -51 -58 
0 0 38 -30 -40 -51 -58 -65 -63 -48 -23 -50 -43 -32 -42 -48 
0 0 52 -19 -46 -56 -64 -64 -81 -63 -25 -58 -51 -31 -49 -60 
0 0 14 -49 -42 -36 -62 -61 -69 -42 -25 -51 -31 -15 -51 -54 
0 0 12 -42 -37 -33 -56 -59 -44 -49 -25 -49 -29 -42 -65 -47 
0 0 -15 -33 -30 -30 -37 -38 -31 -50 -13 -38 -28 -43 -51 -39 
0 0 -9 -30 -44 -37 -55 -46 -60 -37 -23 -52 -31 -14 -40 -56 
0 0 -42 -53 -57 -40 -62 -51 -65 -39 -31 -65 -18 -13 -49 -66 
0 0 -55 -66 -62 -65 -66 -69 -69 -74 -39 -75 -39 -48 -68 -82 
0 0 -51 -68 -60 -80 -74 -83 -79 -82 -43 -82 -70 -45 -62 -95 
0 0 -37 -67 -71 -80 -87 -83 -90 -73 -49 -92 -70 -42 -80 -94 
0 0 -34 -67 -76 -74 -86 -78 -89 -76 -53 -87 -45 -49 -100 -84 
0 0 -55 -75 -69 -75 -87 -82 -86 -76 -56 -78 -42 -37 -78 -89 
0 0 -28 -70 -78 -95 -101 -98 -105 -73 -65 -97 -66 -31 -64 -103 
0 0 1 -60 -70 -75 -78 -78 -92 -54 -44 -78 -46 -31 -69 -73 
0 0 26 -40 -65 -58 -67 -68 -74 -63 -32 -56 -37 -29 -66 -58 
0 0 -21 -58 -68 -54 -66 -61 -67 -70 -35 -52 -46 -25 -53 -59 
0 0 12 -45 -76 -62 -71 -68 -90 -71 -39 -64 -51 -49 -75 -52 
0 0 19 -35 -56 -34 -34 -36 -61 -46 -9 -35 -17 -58 -80 -17 
0 0 22 -24 -58 -35 -32 -29 -48 -81 -13 -21 -30 -76 -89 -19 
0 0 8 -37 -60 -33 -38 -35 -54 -100 -23 -16 -46 -71 -83 -20 
0 0 36 -29 -61 -49 -57 -68 -77 -93 -25 -38 -61 -64 -81 -30 
0 0 -5 -48 -45 -50 -48 -62 -54 -61 -12 -41 -47 -44 -64 -36 
0 0 -11 -59 -48 -65 -58 -63 -56 -71 -25 -58 -45 -51 -59 -47 
0 0 -29 -74 -58 -69 -71 -71 -74 -75 -44 -66 -44 -43 -42 -50 
0 0 -17 -57 -69 -73 -82 -84 -92 -76 -53 -71 -50 -37 -44 -61 
0 0 -30 -45 -57 -55 -56 -63 -72 -57 -35 -63 -31 -27 -50 -49 
0 0 -31 -57 -54 -55 -50 -66 -63 -45 -32 -71 -32 -30 -60 -51 
0 0 -32 -68 -59 -72 -65 -86 -74 -61 -42 -80 -54 -38 -62 -68 
0 0 -30 -59 -67 -77 -66 -79 -82 -77 -34 -71 -61 -48 -66 -70 
0 0 -27 -56 -75 -77 -53 -70 -75 -78 -35 -67 -60 -63 -78 -62 
0 0 -53 -75 -73 -80 -55 -82 -77 -81 -50 -70 -67 -87 -83 -66 
0 0 -35 -74 -76 -97 -80 -103 -92 -109 -62 -86 -85 -101 -90 -81 
0 0 -33 -79 -75 -97 -84 -92 -76 -101 -61 -81 -82 -82 -88 -79 
0 0 -9 -73 -85 -96 -94 -100 -85 -95 -74 -87 -87 -65 -92 -91 
0 0 -46 -91 -77 -78 -81 -92 -89 -83 -65 -90 -72 -45 -68 -89 
0 0 -31 -83 -83 -99 -86 -106 -106 -94 -66 -113 -78 -48 -63 -96 
0 0 -19 -82 -86 -92 -76 -99 -98 -84 -61 -100 -67 -53 -86 -82 
0 0 12 -66 -92 -83 -78 -94 -95 -83 -62 -87 -64 -66 -117 -78 
0 0 -15 -79 -69 -73 -56 -74 -66 -64 -51 -75 -49 -50 -89 -74 
0 0 -14 -83 -74 -97 -71 -94 -80 -76 -69 -103 -66 -60 -78 -95 
0 0 -36 -94 -91 -95 -88 -95 -91 -81 -82 -111 -61 -67 -88 -97 
0 0 -23 -84 -100 -100 -94 -91 -100 -90 -79 -105 -60 -69 -96 -94 
0 0 -50 -90 -87 -93 -65 -85 -94 -79 -66 -93 -59 -60 -89 -88 
0 0 -53 -98 -89 -114 -76 -113 -103 -94 -80 -118 -69 -90 -106 -100 
0 0 -59 -104 -83 -131 -92 -126 -91 -106 -87 -133 -72 -94 -96 -105 
0 0 -56 -103 -72 -119 -88 -114 -79 -98 -74 -124 -86 -75 -91 -102 
0 0 -72 -108 -76 -108 -81 -101 -88 -85 -74 -118 -90 -73 -99 -99 
0 0 -79 -102 -81 -105 -76 -98 -96 -83 -82 -117 -65 -77 -78 -95 
0 0 -45 -82 -80 -95 -72 -95 -90 -91 -79 -108 -61 -67 -61 -92 
0 0 -57 -95 -84 -92 -79 -88 -81 -85 -72 -98 -72 -58 -74 -94 
0 0 -45 -97 -94 -114 -96 -105 -95 -83 -82 -110 -75 -58 -82 -104 
0 0 -27 -80 -68 -87 -67 -91 -80 -56 -62 -90 -48 -36 -60 -74 
0 0 12 -51 -63 -76 -57 -81 -76 -70 -52 -79 -54 -49 -74 -53 
0 0 -37 -78 -80 -84 -59 -69 -73 -83 -57 -71 -53 -77 -92 -55 
0 0 -30 -84 -95 -102 -71 -88 -92 -96 -68 -86 -71 -97 -102 -72 
0 0 -19 -85 -78 -90 -50 -86 -77 -98 -53 -77 -76 -78 -80 -58 
0 0 -4 -68 -80 -102 -54 -95 -75 -121 -59 -82 -84 -81 -82 -67 
0 0 -39 -82 -69 -87 -50 -77 -58 -94 -53 -73 -71 -77 -73 -63 
0 0 -28 -80 -60 -80 -58 -75 -57 -77 -45 -74 -84 -68 -70 -58 
0 0 -53 -88 -60 -78 -52 -72 -53 -78 -43 -74 -76 -59 -58 -54 
0 0 -46 -82 -83 -94 -68 -85 -86 -88 -67 -98 -62 -61 -60 -77 
0 0 -61 -89 -83 -74 -61 -64 -95 -57 -63 -96 -33 -29 -53 -70 
0 0 -64 -97 -78 -71 -60 -53 -83 -54 -51 -90 -44 -37 -65 -63 
0 0 -69 -104 -81 -89 -64 -76 -61 -90 -55 -102 -70 -86 -79 -67 
0 0 -48 -95 -79 -92 -61 -93 -55 -108 -56 -110 -74 -91 -77 -65 
0 0 -42 -83 -69 -84 -52 -74 -54 -79 -49 -87 -56 -48 -67 -51 
0 0 -65 -86 -65 -79 -51 -51 -56 -62 -48 -58 -47 -49 -69 -43 
0 0 -34 -75 -74 -78 -53 -61 -67 -90 -58 -60 -60 -72 -82 -47 
0 0 -18 -78 -76 -68 -46 -62 -66 -89 -57 -67 -64 -56 -71 -47 
0 0 -11 -80 -79 -73 -58 -56 -71 -82 -60 -74 -64 -52 -67 -51 
0 0 -42 -86 -66 -58 -42 -36 -54 -77 -47 -54 -38 -58 -70 -31 
0 0 -12 -71 -81 -85 -55 -70 -67 -105 -59 -73 -69 -81 -73 -51 
0 0 -29 -81 -91 -101 -68 -89 -69 -96 -65 -87 -87 -77 -69 -71 
0 0 -27 -76 -99 -102 -78 -97 -85 -83 -69 -98 -82 -71 -112 -75 
0 0 -39 -87 -84 -76 -59 -76 -70 -53 -62 -81 -51 -63 -114 -61 
0 0 -8 -74 -73 -80 -65 -78 -57 -64 -66 -82 -56 -74 -86 -71 
0 0 -33 -89 -77 -86 -66 -80 -62 -86 -71 -93 -70 -68 -82 -81 
0 0 -29 -99 -104 -111 -87 -110 -102 -109 -92 -119 -93 -83 -100 -103 
0 0 -51 -105 -86 -95 -74 -94 -80 -87 -75 -104 -67 -92 -73 -93 
0 0 -41 -94 -72 -97 -72 -92 -65 -97 -71 -107 -67 -106 -78 -96 
0 0 -55 -100 -83 -110 -77 -112 -80 -106 -87 -126 -83 -96 -87 -111 
0 0 -62 -98 -78 -98 -74 -102 -74 -85 -83 -112 -66 -77 -77 -107 
0 0 -72 -95 -57 -78 -60 -75 -50 -71 -70 -90 -49 -75 -73 -90 
0 0 -71 -107 -75 -105 -78 -102 -75 -105 -92 -119 -89 -98 -95 -110 
0 0 -68 -121 -102 -138 -111 -138 -108 -128 -114 -152 -118 -93 -98 -137 
0 0 -96 -136 -94 -134 -112 -128 -100 -110 -105 -144 -91 -85 -87 -139 
0 0 -76 -133 -88 -134 -97 -128 -91 -126 -105 -138 -96 -116 -100 -140 
0 0 -67 -131 -94 -134 -90 -131 -90 -144 -109 -136 -124 -131 -109 -139 
0 0 -42 -113 -102 -149 -104 -146 -106 -137 -114 -147 -131 -106 -103 -147 
0 0 -63 -117 -81 -125 -79 -126 -92 -87 -93 -122 -90 -58 -74 -128 
0 0 -43 -108 -88 -123 -69 -132 -104 -95 -91 -118 -103 -75 -82 -121 
0 0 -54 -115 -96 -130 -65 -139 -105 -107 -91 -122 -110 -92 -101 -114 
0 0 -29 -105 -107 -155 -88 -153 -116 -115 -107 -143 -108 -93 -120 -126 
0 0 -51 -118 -102 -137 -87 -126 -108 -104 -104 -126 -91 -89 -104 -121 
0 0 -40 -102 -88 -116 -74 -109 -100 -100 -87 -103 -89 -94 -93 -105 
0 0 -44 -93 -65 -99 -43 -92 -66 -84 -62 -84 -76 -74 -90 -80 
0 0 -36 -91 -91 -113 -64 -106 -85 -114 -81 -106 -93 -92 -123 -98 
0 0 -91 -114 -111 -102 -79 -95 -100 -111 -96 -110 -88 -104 -127 -108 
0 0 -95 -114 -111 -104 -85 -95 -106 -100 -104 -113 -88 -97 -115 -117 
0 0 -78 -105 -94 -111 -75 -100 -89 -101 -95 -112 -85 -84 -102 -112 
0 0 -72 -104 -90 -116 -76 -108 -82 -103 -81 -112 -87 -95 -102 -108 
0 0 -93 -125 -100 -121 -90 -121 -99 -95 -91 -126 -92 -96 -99 -122 
0 0 -93 -130 -105 -127 -97 -136 -116 -93 -103 -140 -97 -84 -96 -125 
0 0 -60 -110 -97 -122 -84 -136 -108 -96 -92 -133 -90 -73 -101 -105 
0 0 -69 -117 -91 -113 -70 -120 -98 -100 -83 -125 -79 -90 -106 -94 
0 0 -59 -119 -98 -124 -73 -122 -107 -126 -92 -136 -92 -122 -119 -99 
0 0 -68 -122 -96 -116 -66 -116 -95 -131 -83 -123 -101 -117 -116 -93 
0 0 -41 -111 -112 -128 -79 -131 -122 -149 -97 -127 -120 -117 -125 -113 
0 0 -64 -124 -114 -127 -73 -114 -133 -138 -107 -120 -105 -119 -125 -116 
0 0 -61 -126 -125 -136 -93 -113 -137 -141 -117 -133 -117 -135 -140 -129 
0 0 -89 -137 -129 -120 -96 -102 -127 -128 -109 -130 -114 -135 -146 -137 
0 0 -69 -116 -132 -124 -101 -114 -142 -131 -118 -135 -117 -125 -140 -148 
0 0 -73 -128 -121 -124 -91 -109 -133 -130 -118 -125 -114 -97 -110 -133 
0 0 -52 -141 -138 -143 -103 -133 -150 -149 -123 -139 -130 -130 -136 -140 
0 0 -77 -148 -143 -141 -90 -143 -149 -131 -117 -140 -113 -151 -158 -133 
0 0 -60 -123 -133 -147 -85 -151 -140 -123 -121 -134 -108 -120 -152 -127 
0 0 -72 -127 -127 -142 -80 -136 -128 -108 -122 -121 -103 -79 -137 -130 
0 0 -83 -139 -142 -142 -92 -132 -146 -104 -122 -133 -99 -97 -153 -143 
0 0 -100 -142 -141 -137 -96 -133 -149 -132 -122 -150 -104 -118 -150 -139 
0 0 -88 -138 -141 -149 -107 -149 -146 -163 -129 -163 -126 -139 -157 -149 
0 0 -91 -141 -139 -160 -100 -152 -139 -145 -125 -158 -120 -154 -177 -154 
0 0 -119 -146 -124 -150 -76 -136 -137 -132 -107 -136 -101 -157 -161 -133 
0 0 -101 -144 -135 -163 -94 -154 -161 -177 -120 -148 -138 -172 -147 -135 
0 0 -92 -156 -149 -175 -123 -171 -166 -177 -139 -164 -154 -169 -164 -152 
0 0 -70 -146 -134 -164 -121 -158 -149 -130 -136 -158 -120 -134 -157 -151 
0 0 -108 -158 -117 -142 -103 -137 -135 -111 -130 -142 -105 -115 -126 -146 
0 0 -101 -162 -153 -177 -138 -181 -174 -164 -160 -183 -152 -148 -165 -182 
0 0 -99 -172 -159 -193 -138 -193 -182 -155 -155 -200 -144 -139 -174 -192 
0 0 -58 -158 -137 -193 -124 -183 -167 -127 -142 -196 -120 -117 -141 -190 
0 0 -73 -160 -114 -148 -88 -148 -123 -114 -121 -161 -94 -111 -142 -150 
0 0 -57 -134 -130 -137 -88 -155 -134 -139 -120 -151 -101 -142 -182 -128 
0 0 -55 -123 -114 -129 -80 -129 -128 -108 -101 -127 -88 -131 -147 -111 
0 0 -34 -108 -93 -116 -79 -107 -111 -93 -91 -108 -91 -116 -122 -98 
0 0 -93 -124 -103 -98 -79 -106 -107 -106 -101 -106 -97 -115 -129 -92 
0 0 -108 -127 -136 -127 -112 -138 -154 -131 -134 -137 -116 -128 -143 -127 
0 0 -97 -118 -129 -128 -111 -129 -151 -113 -130 -130 -114 -109 -131 -130 
0 0 -79 -110 -117 -107 -104 -121 -129 -99 -117 -115 -110 -98 -124 -119 
0 0 -105 -124 -118 -106 -111 -127 -140 -105 -126 -124 -102 -94 -123 -123 
0 0 -105 -127 -116 -121 -115 -130 -157 -115 -131 -130 -95 -87 -132 -126 
0 0 -77 -119 -121 -121 -117 -141 -152 -124 -131 -127 -104 -93 -143 -123 
0 0 -95 -132 -128 -123 -128 -145 -150 -126 -136 -124 -109 -112 -143 -128 
0 0 -89 -133 -117 -143 -125 -144 -157 -116 -136 -128 -100 -102 -131 -129 
0 0 -80 -131 -107 -142 -105 -139 -145 -111 -121 -116 -91 -84 -114 -117 
0 0 -54 -120 -127 -140 -121 -147 -160 -138 -130 -118 -113 -100 -116 -127 
0 0 -83 -127 -122 -118 -111 -116 -162 -111 -125 -106 -90 -92 -121 -114 
0 0 -68 -117 -112 -123 -98 -110 -154 -105 -121 -116 -84 -87 -144 -111 
0 0 -84 -128 -114 -120 -97 -116 -135 -129 -120 -123 -108 -104 -153 -123 
0 0 -64 -115 -125 -126 -117 -130 -150 -145 -132 -135 -128 -119 -152 -132 
0 0 -78 -124 -98 -114 -89 -110 -137 -114 -111 -118 -89 -85 -113 -101 
0 0 -77 -128 -98 -132 -90 -129 -146 -141 -102 -125 -99 -96 -115 -107 
0 0 -91 -134 -93 -119 -80 -122 -136 -142 -87 -104 -99 -114 -130 -101 
0 0 -54 -110 -81 -113 -75 -114 -133 -127 -87 -98 -91 -113 -122 -91 
0 0 -93 -125 -75 -119 -75 -112 -130 -121 -98 -108 -87 -87 -88 -100 
0 0 -97 -137 -89 -125 -89 -122 -147 -124 -103 -118 -93 -99 -106 -127 
0 0 -82 -137 -93 -125 -85 -118 -139 -106 -98 -117 -83 -114 -127 -130 
0 0 -88 -141 -100 -153 -101 -141 -138 -121 -111 -149 -103 -114 -117 -148 
0 0 -133 -163 -109 -169 -114 -164 -144 -144 -122 -172 -123 -104 -100 -165 
0 0 -133 -167 -102 -152 -94 -146 -139 -129 -114 -151 -104 -102 -101 -148 
0 0 -91 -147 -94 -146 -79 -128 -139 -107 -116 -142 -91 -96 -104 -129 
0 0 -98 -147 -99 -141 -91 -138 -149 -106 -120 -148 -103 -80 -95 -130 
0 0 -98 -147 -115 -147 -113 -160 -159 -127 -122 -148 -120 -94 -101 -134 
0 0 -112 -160 -113 -151 -110 -149 -146 -129 -116 -128 -113 -121 -119 -118 
0 0 -74 -146 -112 -167 -109 -159 -157 -144 -125 -136 -130 -129 -142 -121 
0 0 -80 -140 -102 -154 -100 -160 -151 -130 -117 -137 -127 -105 -135 -123 
0 0 -71 -133 -99 -163 -121 -167 -149 -117 -119 -148 -118 -102 -130 -138 
0 0 -93 -158 -97 -164 -130 -162 -150 -98 -127 -147 -106 -93 -114 -150 
0 0 -60 -143 -120 -173 -153 -182 -189 -120 -150 -162 -122 -92 -118 -166 
0 0 -59 -127 -105 -136 -132 -150 -167 -107 -132 -138 -96 -71 -103 -133 
0 0 -44 -107 -90 -113 -110 -125 -136 -83 -118 -115 -76 -49 -93 -107 
0 0 -70 -112 -92 -99 -95 -112 -130 -57 -115 -89 -63 -32 -91 -94 
0 0 -56 -98 -106 -108 -113 -123 -162 -75 -124 -93 -76 -52 -111 -99 
0 0 -73 -99 -87 -92 -103 -114 -144 -76 -114 -85 -72 -46 -100 -81 
0 0 -78 -101 -90 -87 -110 -120 -139 -85 -113 -85 -76 -62 -96 -85 
0 0 -104 -108 -108 -93 -129 -115 -155 -93 -120 -94 -77 -89 -104 -105 
0 0 -104 -111 -111 -107 -137 -112 -164 -96 -126 -114 -84 -100 -124 -119 
0 0 -98 -126 -109 -125 -136 -132 -159 -101 -129 -139 -99 -102 -135 -131 
0 0 -120 -151 -115 -138 -142 -148 -160 -110 -134 -152 -98 -107 -131 -142 
0 0 -104 -140 -103 -124 -132 -137 -161 -102 -128 -139 -83 -85 -115 -126 
0 0 -82 -125 -77 -102 -99 -115 -147 -85 -107 -111 -82 -66 -101 -99 
0 0 -66 -127 -97 -129 -113 -141 -146 -117 -121 -131 -112 -96 -121 -114 
0 0 -103 -153 -115 -131 -123 -148 -135 -123 -129 -137 -105 -105 -132 -115 
0 0 -74 -137 -114 -119 -120 -146 -150 -115 -127 -134 -102 -89 -129 -110 
0 0 -76 -131 -97 -99 -100 -116 -145 -99 -112 -120 -89 -73 -112 -101 
0 0 -60 -115 -101 -110 -105 -114 -144 -111 -118 -115 -88 -102 -125 -103 
0 0 -97 -135 -99 -106 -96 -117 -135 -105 -117 -101 -91 -111 -124 -99 
0 0 -95 -140 -103 -121 -112 -140 -146 -127 -126 -131 -121 -110 -117 -119 
0 0 -90 -136 -80 -106 -95 -110 -122 -104 -105 -124 -90 -83 -94 -106 
0 0 -64 -119 -83 -102 -92 -104 -138 -82 -98 -104 -75 -85 -115 -102 
0 0 -125 -149 -108 -117 -112 -124 -154 -116 -123 -108 -103 -121 -139 -118 
0 0 -115 -147 -115 -139 -132 -142 -146 -166 -141 -126 -134 -136 -121 -129 
0 0 -82 -119 -83 -107 -100 -109 -113 -121 -108 -92 -99 -84 -79 -94 
0 0 -85 -110 -86 -87 -96 -98 -125 -99 -95 -76 -75 -93 -113 -83 
0 0 -125 -131 -104 -96 -106 -96 -134 -121 -117 -84 -75 -127 -140 -94 
0 0 -112 -131 -104 -101 -104 -95 -126 -121 -125 -89 -82 -102 -113 -97 
0 0 -92 -120 -105 -95 -107 -100 -134 -109 -120 -93 -89 -84 -99 -100 
0 0 -114 -125 -111 -97 -109 -95 -145 -104 -117 -90 -89 -96 -112 -100 
0 0 -105 -129 -120 -109 -108 -98 -149 -107 -123 -95 -96 -85 -120 -93 
0 0 -99 -138 -113 -103 -101 -94 -139 -100 -120 -91 -92 -92 -112 -90 
0 0 -71 -121 -107 -101 -101 -96 -136 -106 -121 -90 -89 -117 -108 -99 
0 0 -90 -124 -96 -89 -86 -85 -115 -98 -110 -80 -77 -81 -96 -85 
0 0 -75 -131 -99 -104 -105 -106 -126 -109 -114 -105 -99 -80 -111 -104 
0 0 -90 -153 -89 -100 -103 -99 -126 -96 -107 -109 -88 -103 -107 -119 
0 0 -67 -138 -91 -111 -105 -109 -131 -112 -113 -123 -88 -109 -106 -125 
0 0 -79 -141 -83 -107 -96 -109 -114 -113 -111 -123 -86 -80 -96 -113 
0 0 -65 -139 -91 -114 -117 -126 -129 -109 -119 -131 -103 -73 -86 -128 
0 0 -76 -144 -85 -100 -108 -111 -120 -86 -106 -114 -86 -58 -55 -111 
0 0 -40 -110 -65 -88 -86 -92 -111 -92 -84 -91 -66 -66 -71 -76 
0 0 -67 -108 -60 -71 -73 -74 -102 -84 -69 -70 -60 -69 -99 -66 
0 0 -89 -130 -99 -113 -118 -122 -130 -107 -105 -106 -108 -92 -118 -104 
0 0 -110 -144 -105 -148 -132 -153 -127 -137 -125 -130 -127 -116 -118 -113 
0 0 -94 -121 -91 -130 -116 -135 -125 -143 -103 -112 -114 -127 -125 -100 
0 0 -102 -118 -94 -106 -107 -107 -135 -116 -94 -94 -102 -106 -114 -94 
0 0 -120 -133 -98 -106 -104 -95 -125 -103 -103 -95 -94 -89 -109 -84 
0 0 -109 -126 -96 -100 -93 -90 -115 -109 -99 -92 -92 -92 -118 -75 
0 0 -104 -123 -104 -96 -98 -89 -124 -103 -100 -92 -91 -94 -114 -87 
0 0 -82 -133 -111 -118 -117 -107 -133 -113 -123 -114 -98 -96 -113 -102 
0 0 -98 -154 -108 -115 -115 -110 -130 -112 -120 -110 -96 -89 -115 -102 
0 0 -90 -138 -120 -122 -131 -122 -152 -112 -122 -118 -109 -91 -115 -119 
0 0 -109 -141 -108 -118 -128 -112 -143 -96 -120 -118 -86 -82 -98 -117 
0 0 -68 -132 -94 -116 -127 -118 -130 -112 -125 -131 -89 -87 -104 -124 
0 0 -82 -137 -83 -104 -121 -113 -109 -109 -121 -132 -95 -83 -85 -126 
0 0 -79 -130 -110 -144 -149 -138 -133 -130 -133 -160 -123 -115 -100 -144 
0 0 -78 -136 -112 -136 -131 -126 -133 -132 -116 -140 -111 -131 -129 -127 
0 0 -48 -110 -101 -102 -109 -98 -128 -127 -102 -100 -86 -113 -131 -104 
0 0 -96 -121 -90 -81 -91 -76 -113 -99 -98 -82 -73 -83 -96 -89 
0 0 -98 -126 -99 -107 -104 -103 -131 -104 -107 -109 -105 -94 -107 -107 
0 0 -106 -120 -97 -97 -99 -97 -129 -113 -101 -99 -104 -99 -118 -109 
0 0 -95 -109 -110 -88 -102 -90 -137 -124 -116 -85 -97 -101 -113 -105 
0 0 -101 -119 -101 -76 -91 -74 -129 -101 -110 -76 -83 -72 -94 -92 
0 0 -92 -110 -84 -69 -87 -63 -118 -87 -85 -70 -77 -65 -107 -86 
0 0 -96 -106 -105 -82 -97 -72 -131 -101 -96 -78 -84 -95 -136 -97 
0 0 -105 -120 -124 -89 -112 -87 -150 -101 -125 -89 -82 -102 -138 -111 
0 0 -94 -118 -104 -76 -112 -78 -139 -86 -115 -80 -61 -76 -107 -108 
0 0 -105 -123 -88 -73 -107 -66 -124 -88 -98 -73 -62 -79 -92 -99 
0 0 -83 -122 -102 -99 -116 -92 -132 -115 -124 -98 -97 -105 -107 -112 
0 0 -84 -125 -86 -88 -103 -83 -107 -93 -119 -86 -79 -99 -104 -106 
0 0 -69 -114 -81 -90 -115 -83 -118 -80 -108 -88 -69 -86 -98 -106 
0 0 -101 -139 -95 -104 -115 -94 -135 -88 -115 -106 -87 -67 -89 -116 
0 0 -84 -140 -121 -129 -119 -121 -139 -113 -136 -125 -119 -94 -119 -139 
0 0 -99 -142 -113 -113 -106 -93 -113 -90 -116 -99 -87 -109 -132 -122 
0 0 -84 -137 -113 -121 -123 -100 -143 -107 -114 -110 -94 -106 -138 -127 
0 0 -94 -160 -123 -135 -125 -127 -158 -131 -132 -130 -125 -99 -134 -143 
1 0 -67 -144 -135 -146 -138 -140 -158 -127 -145 -137 -131 -116 -138 -149 
1 0 -87 -134 -105 -102 -116 -96 -130 -88 -119 -103 -83 -97 -117 -112 
1 0 -79 -137 -102 -103 -114 -102 -137 -114 -118 -102 -96 -107 -117 -117 
1 0 -97 -147 -115 -130 -125 -126 -150 -135 -127 -117 -124 -117 -107 -137 
1 0 -93 -125 -118 -140 -137 -129 -154 -130 -130 -125 -127 -110 -122 -134 
1 0 -110 -130 -111 -128 -129 -115 -141 -135 -135 -122 -122 -113 -148 -123 
0 0 -122 -148 -121 -145 -139 -136 -148 -163 -152 -133 -144 -142 -140 -136 
0 0 -122 -146 -135 -171 -155 -165 -164 -173 -158 -142 -162 -142 -126 -144 
0 0 -118 -140 -130 -162 -152 -154 -170 -142 -141 -132 -140 -113 -145 -135 
0 0 -97 -137 -110 -134 -137 -125 -147 -117 -130 -119 -113 -99 -139 -130 
1 0 -118 -153 -108 -125 -132 -113 -120 -117 -137 -120 -109 -111 -111 -129 
0 0 -114 -162 -149 -161 -172 -151 -158 -144 -172 -160 -136 -131 -143 -157 
0 0 -122 -170 -158 -163 -181 -158 -187 -134 -173 -168 -139 -119 -154 -166 
0 0 -86 -140 -134 -140 -158 -134 -172 -123 -149 -150 -132 -111 -128 -141 
0 0 -92 -135 -104 -99 -121 -86 -119 -93 -123 -109 -87 -102 -114 -105 
0 0 -62 -125 -116 -112 -140 -98 -125 -89 -139 -114 -73 -102 -136 -117 
0 0 -77 -138 -122 -118 -141 -99 -133 -89 -142 -117 -81 -92 -124 -116 
1 0 -71 -138 -121 -120 -138 -99 -143 -106 -139 -123 -100 -104 -116 -115 
1 0 -105 -155 -112 -105 -127 -84 -125 -100 -133 -116 -78 -112 -116 -109 
1 0 -101 -144 -130 -122 -152 -100 -147 -118 -152 -131 -95 -113 -135 -124 
0 0 -115 -136 -123 -114 -141 -94 -141 -92 -146 -115 -92 -74 -115 -109 
0 0 -101 -131 -113 -111 -134 -100 -129 -81 -135 -105 -82 -77 -104 -103 
0 0 -124 -146 -105 -106 -132 -93 -127 -108 -125 -101 -87 -91 -92 -105 
0 0 -116 -136 -89 -93 -124 -83 -124 -122 -113 -91 -100 -81 -82 -104 
1 0 -108 -135 -93 -96 -114 -94 -120 -102 -110 -96 -94 -79 -88 -102 
1 0 -122 -151 -131 -129 -141 -125 -147 -111 -140 -130 -102 -109 -111 -124 
1 0 -134 -154 -145 -143 -170 -132 -162 -125 -166 -149 -113 -111 -109 -145 
1 0 -136 -151 -127 -127 -163 -115 -146 -108 -149 -131 -100 -98 -108 -136 
1 0 -106 -140 -116 -123 -142 -115 -136 -106 -128 -122 -102 -98 -124 -118 
1 0 -109 -146 -108 -121 -114 -111 -121 -98 -118 -114 -99 -91 -115 -101 
1 0 -87 -138 -108 -135 -106 -123 -123 -103 -118 -117 -100 -100 -114 -101 
1 0 -92 -136 -100 -121 -95 -109 -108 -103 -100 -99 -90 -100 -121 -82 
1 0 -60 -114 -107 -120 -107 -103 -108 -123 -103 -99 -102 -100 -127 -73 
1 0 -88 -133 -106 -112 -102 -95 -114 -120 -99 -88 -105 -98 -119 -69 
1 0 -79 -142 -113 -125 -117 -121 -138 -136 -105 -98 -122 -117 -134 -87 
1 0 -86 -148 -109 -123 -116 -121 -122 -125 -110 -103 -112 -101 -130 -91 
1 0 -81 -140 -123 -138 -135 -136 -136 -125 -132 -132 -111 -108 -134 -117 
1 0 -121 -171 -119 -129 -136 -127 -140 -115 -135 -127 -97 -116 -108 -122 
1 0 -101 -176 -124 -154 -156 -146 -155 -131 -147 -131 -128 -114 -99 -131 
1 0 -109 -165 -125 -168 -155 -157 -154 -124 -142 -136 -141 -96 -100 -122 
1 0 -94 -141 -129 -158 -152 -157 -155 -124 -133 -140 -128 -111 -100 -112 
1 0 -94 -139 -114 -124 -134 -129 -124 -114 -120 -110 -98 -101 -75 -93 
1 0 -91 -131 -97 -113 -128 -111 -103 -93 -113 -85 -89 -81 -81 -80 
1 0 -103 -132 -107 -130 -142 -125 -116 -104 -125 -107 -106 -110 -116 -87 
1 0 -110 -142 -131 -150 -158 -150 -144 -139 -141 -134 -132 -143 -133 -114 
1 0 -101 -139 -120 -137 -142 -141 -138 -125 -123 -117 -124 -112 -120 -107 
1 0 -111 -141 -93 -110 -111 -116 -106 -88 -90 -89 -85 -77 -110 -76 
1 0 -93 -135 -110 -117 -107 -124 -117 -111 -101 -99 -94 -97 -125 -80 
1 0 -106 -139 -123 -113 -104 -106 -132 -124 -116 -97 -107 -111 -117 -89 
1 0 -92 -139 -126 -120 -120 -97 -140 -119 -127 -106 -108 -101 -109 -101 
1 0 -121 -160 -127 -108 -134 -86 -135 -104 -133 -102 -93 -86 -120 -105 
1 0 -103 -148 -145 -112 -173 -99 -163 -118 -160 -113 -107 -112 -142 -129 
1 0 -102 -150 -143 -109 -177 -95 -157 -112 -160 -110 -100 -108 -123 -127 
1 0 -73 -142 -141 -123 -169 -111 -148 -113 -152 -119 -101 -90 -122 -117 
0 0 -96 -149 -125 -109 -143 -94 -132 -88 -140 -109 -85 -81 -117 -99 
1 0 -90 -139 -132 -117 -155 -101 -146 -94 -148 -123 -89 -118 -125 -115 
0 0 -113 -154 -130 -114 -146 -98 -129 -95 -137 -118 -83 -113 -124 -119 
0 0 -113 -154 -125 -119 -147 -101 -130 -96 -143 -116 -101 -86 -127 -128 
0 0 -145 -157 -120 -115 -142 -100 -136 -91 -144 -114 -109 -71 -111 -128 
0 0 -133 -150 -143 -136 -161 -133 -169 -122 -150 -133 -126 -98 -112 -140 
0 0 -133 -159 -158 -148 -167 -143 -177 -135 -154 -142 -128 -109 -127 -140 
0 0 -129 -157 -153 -131 -153 -120 -161 -123 -147 -130 -109 -103 -142 -123 
0 0 -123 -147 -143 -124 -147 -116 -165 -126 -144 -120 -104 -102 -133 -112 
0 0 -125 -148 -137 -146 -158 -137 -178 -139 -148 -129 -121 -119 -130 -125 
0 0 -110 -145 -136 -144 -146 -132 -157 -125 -141 -136 -120 -119 -145 -137 
0 0 -122 -158 -131 -113 -123 -109 -123 -99 -126 -124 -98 -105 -139 -129 
0 0 -110 -167 -139 -133 -140 -131 -135 -118 -144 -142 -113 -107 -127 -145 
0 0 -119 -170 -140 -154 -140 -136 -144 -133 -142 -157 -123 -116 -129 -153 
0 0 -83 -145 -143 -156 -136 -136 -153 -147 -132 -157 -134 -135 -148 -150 
0 0 -101 -152 -125 -126 -112 -114 -128 -125 -117 -120 -111 -126 -129 -125 
0 0 -88 -149 -126 -140 -124 -124 -128 -142 -129 -128 -116 -141 -125 -133 
0 0 -99 -154 -124 -132 -124 -117 -129 -138 -131 -134 -116 -136 -133 -126 
0 0 -90 -149 -126 -129 -132 -116 -138 -123 -131 -138 -124 -118 -143 -124 
0 0 -132 -180 -125 -132 -122 -103 -123 -114 -128 -132 -106 -109 -120 -131 
0 0 -127 -183 -151 -158 -138 -127 -150 -154 -150 -162 -122 -146 -142 -162 
0 0 -133 -181 -150 -142 -138 -135 -157 -144 -149 -161 -131 -128 -152 -161 
0 0 -112 -169 -142 -148 -144 -148 -153 -128 -145 -161 -134 -108 -136 -155 
0 0 -136 -174 -134 -156 -125 -136 -139 -132 -137 -151 -114 -127 -120 -132 
0 0 -133 -169 -134 -144 -119 -122 -142 -137 -133 -134 -105 -132 -135 -123 
0 0 -126 -166 -136 -129 -134 -114 -141 -115 -135 -132 -102 -103 -138 -130 
0 0 -123 -162 -140 -139 -144 -125 -146 -118 -142 -152 -108 -117 -131 -137 
0 0 -140 -168 -126 -142 -124 -125 -138 -134 -135 -157 -110 -134 -110 -135 
0 0 -161 -181 -120 -130 -110 -110 -120 -125 -125 -141 -101 -121 -113 -133 
0 0 -134 -179 -146 -149 -129 -132 -136 -134 -146 -159 -115 -130 -160 -144 
0 0 -131 -181 -154 -164 -134 -152 -149 -150 -151 -175 -135 -139 -168 -149 
0 0 -112 -156 -135 -148 -129 -142 -141 -146 -134 -154 -132 -112 -130 -138 
0 0 -126 -152 -120 -115 -113 -106 -121 -119 -118 -110 -106 -98 -115 -107 
0 0 -97 -153 -141 -135 -124 -127 -142 -155 -139 -127 -131 -140 -145 -113 
0 0 -101 -162 -132 -130 -120 -125 -138 -161 -135 -135 -124 -126 -120 -110 
0 0 -76 -141 -117 -127 -124 -114 -135 -142 -127 -125 -109 -101 -91 -109 
0 0 -98 -161 -109 -116 -96 -93 -111 -102 -111 -104 -89 -102 -103 -93 
0 0 -86 -161 -117 -126 -88 -111 -126 -99 -107 -117 -94 -108 -131 -93 
0 0 -96 -162 -106 -125 -83 -112 -125 -104 -104 -114 -91 -81 -98 -89 
0 0 -57 -152 -118 -153 -102 -132 -131 -127 -127 -139 -124 -99 -102 -107 
0 0 -86 -157 -124 -146 -110 -134 -127 -113 -131 -152 -125 -106 -123 -110 
0 0 -115 -144 -119 -140 -122 -142 -135 -110 -125 -146 -115 -100 -120 -114 
0 0 -118 -143 -118 -153 -125 -148 -130 -129 -128 -139 -122 -101 -105 -113 
0 0 -97 -144 -137 -166 -156 -164 -149 -159 -146 -158 -152 -121 -124 -128 
0 0 -142 -151 -127 -143 -141 -146 -149 -145 -133 -150 -145 -109 -130 -125 
0 0 -165 -151 -103 -126 -83 -123 -126 -114 -104 -129 -112 -85 -119 -105 
0 0 -121 -147 -110 -133 -79 -130 -129 -112 -112 -129 -109 -82 -109 -99 
0 0 -124 -154 -116 -125 -100 -115 -133 -116 -125 -113 -113 -99 -105 -103 
0 0 -121 -145 -102 -108 -92 -91 -118 -104 -113 -99 -97 -98 -106 -96 
0 0 -118 -152 -98 -100 -89 -92 -112 -81 -107 -100 -72 -69 -89 -89 
0 0 -88 -148 -130 -124 -125 -120 -150 -100 -140 -113 -95 -67 -98 -111 
0 0 -101 -143 -130 -104 -114 -91 -148 -96 -139 -87 -88 -73 -110 -94 
0 0 -67 -111 -114 -82 -96 -69 -124 -90 -121 -74 -73 -78 -103 -68 
0 0 -82 -114 -97 -72 -73 -59 -98 -67 -101 -52 -68 -58 -76 -57 
0 0 -78 -121 -116 -99 -94 -86 -128 -100 -113 -67 -96 -81 -108 -92 
0 0 -103 -137 -118 -86 -90 -74 -126 -118 -108 -77 -82 -98 -126 -87 
0 0 -95 -127 -112 -85 -86 -78 -115 -113 -106 -88 -87 -89 -113 -78 
0 0 -128 -148 -108 -98 -93 -88 -116 -99 -109 -94 -104 -75 -95 -93 
0 0 -124 -152 -140 -130 -137 -122 -160 -139 -139 -132 -129 -115 -123 -124 
0 0 -143 -159 -150 -134 -142 -132 -168 -161 -153 -143 -133 -128 -125 -123 
0 0 -119 -155 -140 -140 -143 -141 -165 -164 -152 -135 -143 -121 -129 -121 
0 0 -109 -147 -124 -130 -131 -122 -155 -142 -126 -117 -118 -113 -142 -107 
0 0 -112 -128 -124 -127 -121 -119 -166 -137 -114 -114 -112 -120 -154 -95 
0 0 -140 -138 -127 -140 -118 -143 -167 -158 -126 -126 -138 -123 -148 -106 
0 0 -151 -161 -126 -158 -118 -154 -145 -163 -131 -141 -144 -137 -149 -125 
0 0 -129 -165 -140 -171 -127 -153 -149 -156 -135 -160 -136 -152 -163 -137 
0 0 -134 -179 -156 -177 -139 -163 -175 -176 -141 -172 -148 -158 -164 -145 
0 0 -118 -173 -154 -181 -131 -170 -170 -199 -134 -169 -164 -150 -156 -135 
0 0 -131 -169 -130 -151 -91 -130 -126 -161 -109 -130 -136 -121 -146 -100 
0 0 -109 -160 -136 -152 -100 -131 -140 -157 -123 -129 -142 -132 -154 -110 
0 0 -118 -156 -125 -141 -99 -119 -132 -151 -120 -122 -131 -139 -144 -105 
0 0 -93 -130 -111 -126 -90 -98 -114 -134 -112 -100 -113 -119 -140 -86 
0 0 -121 -162 -119 -120 -99 -90 -128 -120 -128 -93 -105 -100 -128 -95 
0 0 -111 -181 -147 -157 -141 -136 -168 -155 -163 -142 -134 -129 -137 -139 
0 0 -114 -182 -141 -163 -134 -144 -146 -153 -154 -153 -132 -121 -139 -136 
0 0 -102 -185 -158 -194 -160 -177 -167 -165 -168 -179 -158 -122 -135 -165 
0 0 -147 -217 -164 -205 -167 -190 -177 -165 -183 -206 -167 -120 -102 -187 
0 0 -132 -193 -149 -186 -133 -171 -156 -157 -164 -194 -153 -123 -116 -156 
0 0 -129 -171 -139 -162 -105 -142 -146 -144 -140 -147 -134 -135 -131 -117 
0 0 -135 -172 -164 -178 -142 -161 -187 -162 -163 -154 -149 -160 -135 -143 
0 0 -159 -170 -152 -158 -121 -139 -165 -139 -149 -140 -132 -125 -135 -128 
0 0 -143 -158 -124 -132 -79 -101 -132 -112 -110 -105 -113 -100 -153 -91 
0 0 -133 -169 -147 -156 -106 -126 -159 -140 -123 -122 -136 -125 -152 -116 
0 0 -150 -179 -161 -168 -118 -149 -167 -152 -140 -140 -145 -131 -137 -138 
0 0 -127 -171 -141 -145 -85 -127 -139 -118 -121 -122 -117 -99 -138 -113 
0 0 -126 -178 -137 -139 -89 -119 -135 -105 -115 -120 -112 -92 -134 -110 
0 0 -119 -176 -160 -173 -127 -159 -168 -158 -143 -154 -162 -143 -145 -139 
0 0 -137 -186 -149 -171 -107 -151 -153 -170 -142 -145 -164 -153 -146 -127 
0 0 -107 -172 -149 -172 -107 -148 -149 -160 -149 -139 -147 -123 -141 -124 
0 0 -122 -178 -160 -174 -128 -155 -166 -163 -161 -141 -142 -135 -133 -130 
0 0 -102 -168 -173 -189 -151 -174 -180 -194 -173 -155 -170 -192 -160 -144 
0 0 -120 -173 -159 -167 -125 -142 -149 -157 -153 -133 -147 -166 -162 -135 
0 0 -110 -157 -159 -154 -122 -133 -167 -126 -145 -130 -132 -130 -155 -131 
0 0 -120 -166 -149 -138 -118 -125 -161 -118 -137 -131 -121 -120 -143 -112 
0 0 -103 -164 -157 -163 -139 -148 -150 -139 -154 -148 -136 -133 -159 -134 
0 0 -147 -179 -163 -170 -141 -154 -155 -126 -161 -142 -134 -121 -165 -148 
0 0 -135 -179 -165 -167 -136 -158 -180 -133 -154 -145 -146 -131 -157 -143 
0 0 -119 -172 -144 -140 -112 -135 -158 -136 -130 -132 -135 -122 -138 -116 
0 0 -115 -153 -146 -128 -112 -121 -157 -139 -124 -118 -125 -125 -165 -111 
0 0 -147 -158 -158 -126 -103 -96 -163 -129 -133 -104 -120 -135 -188 -107 
0 0 -136 -159 -144 -111 -81 -58 -132 -132 -126 -75 -115 -139 -169 -87 
0 0 -103 -139 -122 -100 -65 -37 -121 -142 -106 -45 -109 -129 -136 -63 
0 0 -115 -134 -121 -101 -46 -33 -142 -133 -98 -36 -109 -115 -123 -46 
0 0 -109 -145 -133 -117 -25 -35 -141 -150 -109 -45 -127 -135 -135 -42 
0 0 -104 -155 -125 -115 7 -12 -110 -172 -119 -14 -129 -163 -144 -18 
0 0 -68 -119 -115 -109 47 2 -106 -164 -100 32 -131 -143 -141 28 
0 0 -82 -107 -110 -86 107 10 -114 -126 -45 69 -118 -103 -131 77 
0 0 -60 -116 -136 -109 106 -25 -143 -157 -51 61 -134 -142 -162 80 
0 0 -82 -138 -142 -131 118 -37 -138 -169 -66 72 -144 -168 -168 100 
0 0 -66 -116 -137 -139 150 -65 -146 -166 -44 78 -165 -153 -167 127 
0 0 -64 -121 -120 -124 201 -86 -134 -162 -5 93 -156 -136 -163 146 
1 0 -44 -133 -129 -167 207 -132 -133 -182 -22 61 -170 -156 -173 114 
1 0 -81 -157 -119 -186 213 -163 -107 -164 -18 24 -172 -153 -159 98 
1 0 -59 -151 -108 -189 201 -212 -104 -168 -14 -4 -184 -160 -156 99 
1 0 -71 -166 -115 -200 191 -243 -112 -182 -33 -21 -190 -158 -159 95 
1 0 -86 -179 -137 -247 165 -287 -142 -206 -50 -73 -216 -163 -171 44 
1 0 -119 -190 -125 -264 170 -320 -130 -207 -39 -107 -222 -171 -162 15 
1 0 -122 -190 -119 -271 181 -354 -114 -207 -39 -127 -227 -183 -154 11 
1 0 -125 -189 -108 -278 202 -359 -102 -188 -26 -143 -216 -158 -128 6 
1 0 -121 -190 -87 -265 213 -345 -86 -165 -1 -141 -202 -137 -119 7 
0 0 -119 -203 -111 -269 193 -366 -110 -187 -17 -153 -226 -164 -149 2 
0 0 -134 -217 -141 -292 182 -394 -137 -212 -36 -171 -243 -183 -169 -20 
0 0 -99 -198 -126 -299 202 -390 -110 -207 -32 -172 -232 -166 -161 -28 
0 0 -105 -197 -113 -272 220 -368 -92 -201 -42 -157 -224 -159 -148 -11 
1 0 -85 -179 -116 -261 208 -373 -118 -211 -41 -153 -228 -163 -138 -4 
1 0 -86 -170 -90 -245 236 -357 -90 -173 14 -128 -199 -134 -118 15 
1 0 -68 -173 -109 -270 225 -387 -99 -193 5 -151 -222 -152 -145 -2 
1 0 -102 -200 -120 -285 209 -407 -123 -209 -17 -168 -233 -169 -144 -13 
0 0 -84 -184 -116 -300 198 -414 -126 -206 -27 -185 -242 -176 -137 -23 
0 0 -96 -193 -110 -281 210 -389 -98 -189 -25 -174 -239 -165 -142 -18 
0 0 -79 -176 -108 -268 218 -375 -110 -191 -9 -148 -233 -164 -157 -8 
1 0 -97 -173 -83 -250 247 -350 -86 -174 25 -119 -211 -165 -144 17 
1 0 -89 -185 -101 -278 214 -379 -82 -211 -4 -160 -256 -197 -154 -8 
1 0 -116 -200 -122 -288 189 -387 -94 -229 -33 -171 -272 -191 -158 -24 
1 0 -93 -167 -108 -264 212 -358 -101 -206 -5 -131 -231 -170 -151 -1 
1 0 -85 -147 -75 -225 251 -320 -74 -171 40 -92 -193 -143 -129 40 
1 0 -95 -156 -82 -221 236 -321 -76 -160 27 -98 -198 -131 -127 36 
0 0 -106 -169 -106 -240 210 -337 -92 -163 -5 -123 -199 -133 -140 4 
1 0 -102 -170 -106 -249 212 -341 -97 -181 0 -125 -198 -150 -149 -7 
1 0 -99 -171 -105 -255 202 -347 -127 -193 -5 -127 -213 -156 -131 -12 
1 0 -119 -184 -105 -251 180 -335 -113 -173 -19 -129 -210 -140 -119 -13 
1 0 -84 -165 -89 -240 189 -313 -66 -169 -5 -124 -194 -129 -128 -3 
1 0 -83 -160 -71 -224 215 -296 -59 -165 8 -106 -183 -131 -114 6 
1 0 -64 -158 -87 -240 191 -318 -91 -166 -8 -118 -209 -148 -121 0 
1 0 -83 -167 -72 -220 204 -289 -69 -143 20 -91 -191 -125 -138 36 
1 0 -71 -153 -80 -217 202 -283 -80 -161 14 -87 -184 -123 -152 20 
1 0 -95 -171 -105 -222 179 -295 -89 -175 -17 -115 -189 -147 -137 -26 
1 0 -79 -176 -112 -239 142 -312 -102 -195 -34 -142 -215 -162 -144 -44 
1 0 -94 -189 -96 -229 138 -301 -112 -161 -31 -129 -192 -113 -132 -31 
1 0 -74 -174 -103 -237 124 -320 -124 -134 -38 -141 -175 -108 -119 -46 
1 0 -97 -186 -89 -243 142 -321 -90 -153 -23 -143 -195 -151 -105 -38 
1 0 -104 -205 -107 -285 107 -344 -116 -230 -55 -175 -261 -202 -139 -70 
1 0 -124 -207 -122 -278 90 -336 -125 -208 -68 -178 -243 -175 -154 -88 
1 0 -102 -169 -95 -232 124 -303 -91 -150 -24 -139 -184 -135 -133 -44 
1 0 -113 -172 -88 -236 141 -300 -82 -170 -21 -138 -190 -140 -126 -30 
1 0 -127 -192 -123 -273 111 -325 -114 -192 -54 -176 -229 -161 -149 -76 
1 0 -125 -177 -112 -252 107 -311 -114 -161 -40 -161 -209 -143 -129 -65 
1 0 -130 -173 -88 -236 102 -301 -101 -172 -31 -137 -196 -132 -106 -44 
1 0 -113 -182 -106 -263 72 -322 -106 -207 -66 -162 -230 -143 -121 -74 
1 0 -111 -172 -98 -238 65 -298 -97 -158 -59 -144 -215 -125 -116 -62 
1 0 -89 -149 -87 -212 66 -277 -104 -139 -33 -118 -193 -121 -119 -46 
1 0 -103 -172 -96 -208 86 -275 -100 -173 -32 -122 -190 -137 -142 -54 
1 0 -70 -159 -103 -221 79 -289 -95 -184 -48 -142 -199 -142 -151 -51 
1 0 -80 -151 -75 -203 90 -267 -75 -133 -28 -119 -175 -116 -114 -20 
1 0 -66 -153 -78 -215 103 -275 -90 -144 -21 -125 -183 -127 -111 -35 
1 0 -86 -168 -83 -211 112 -266 -83 -157 -21 -128 -181 -126 -111 -48 
1 0 -69 -155 -95 -222 68 -281 -89 -172 -45 -147 -194 -136 -114 -69 
1 0 -94 -176 -84 -212 72 -270 -75 -153 -49 -137 -181 -135 -101 -61 
1 0 -89 -168 -70 -198 83 -252 -71 -127 -46 -123 -162 -100 -97 -44 
1 0 -112 -162 -59 -181 87 -225 -56 -100 -34 -104 -141 -65 -76 -31 
1 0 -113 -169 -87 -212 62 -254 -90 -140 -49 -130 -165 -135 -85 -69 
1 0 -143 -194 -100 -218 63 -260 -100 -158 -53 -145 -176 -187 -116 -92 
1 0 -138 -189 -89 -204 65 -237 -63 -152 -41 -135 -178 -171 -153 -77 
1 0 -131 -185 -84 -209 55 -242 -55 -161 -43 -138 -188 -153 -152 -69 
1 0 -126 -185 -90 -225 48 -269 -89 -164 -50 -163 -198 -156 -125 -93 
1 0 -130 -186 -92 -217 54 -257 -79 -140 -50 -174 -177 -137 -104 -103 
1 0 -148 -197 -92 -205 43 -236 -64 -120 -55 -162 -157 -130 -111 -89 
1 0 -110 -179 -86 -208 21 -245 -84 -124 -59 -153 -173 -132 -109 -81 
0 0 -95 -163 -63 -189 30 -227 -69 -110 -42 -133 -164 -104 -68 -72 
0 0 -82 -149 -70 -185 27 -219 -71 -112 -54 -136 -156 -102 -74 -80 
0 0 -93 -143 -73 -151 39 -195 -74 -89 -51 -109 -130 -107 -97 -52 
0 0 -43 -109 -69 -134 29 -180 -72 -84 -41 -75 -132 -109 -100 -20 
0 0 -56 -114 -60 -133 21 -174 -53 -85 -27 -56 -146 -90 -81 -21 
0 0 -55 -120 -71 -158 8 -204 -75 -110 -36 -88 -174 -103 -90 -52 
0 0 -75 -136 -64 -147 29 -190 -76 -101 -26 -86 -148 -107 -86 -36 
0 0 -59 -122 -61 -146 26 -193 -78 -93 -27 -89 -139 -101 -84 -28 
1 0 -78 -131 -39 -126 31 -184 -56 -81 -18 -82 -130 -74 -51 -27 
1 0 -60 -134 -35 -125 12 -183 -60 -93 -16 -89 -134 -82 -40 -32 
1 0 -82 -136 -45 -129 3 -195 -53 -97 -32 -97 -136 -100 -59 -24 
1 0 -64 -116 -50 -138 14 -215 -46 -115 -58 -104 -139 -105 -74 -26 
1 0 -59 -115 -12 -112 70 -166 -14 -93 -13 -68 -110 -68 -34 -6 
1 0 -66 -117 2 -104 95 -137 0 -60 45 -56 -108 -55 -19 17 
2 0 -86 -120 -23 -115 71 -162 -2 -52 32 -80 -119 -62 -40 11 
2 0 -86 -120 -35 -109 48 -163 -12 -58 -1 -81 -99 -61 -49 -17 
2 0 -82 -121 -26 -98 61 -142 -17 -48 -3 -72 -90 -51 -27 -23 
2 0 -108 -146 -28 -97 77 -139 -8 -34 -3 -83 -103 -58 -26 -10 
2 0 -94 -149 -50 -113 53 -150 -22 -76 -14 -103 -110 -81 -56 -32 
2 0 -103 -153 -49 -128 30 -156 -33 -114 -23 -111 -102 -94 -37 -61 
2 0 -76 -149 -40 -143 25 -173 -26 -104 -49 -127 -117 -103 -36 -59 
2 0 -86 -154 -13 -84 68 -118 30 -43 -8 -79 -85 -74 -73 -15 
2 0 -76 -136 -25 -68 65 -93 11 -61 20 -63 -70 -69 -93 -21 
2 0 -90 -154 -50 -112 40 -119 -26 -95 -7 -101 -82 -89 -62 -40 
2 0 -51 -148 -52 -134 39 -147 -11 -101 -25 -123 -105 -106 -67 -49 
2 0 -71 -146 -32 -82 76 -103 24 -66 -7 -72 -80 -71 -62 -17 
2 0 -66 -126 -41 -82 49 -94 -1 -60 -32 -63 -70 -62 -38 2 
3 0 -67 -120 -27 -74 65 -80 22 -38 -12 -55 -57 -46 0 21 
3 0 -53 -113 -27 -64 85 -77 30 -42 15 -42 -80 -49 -21 1 
3 0 -103 -134 -34 -56 67 -59 7 -57 -8 -28 -75 -72 -46 5 
3 0 -95 -127 -45 -63 36 -56 -21 -80 -27 -34 -56 -95 -60 16 
3 0 -84 -125 -52 -63 49 -69 -15 -78 -10 -43 -57 -86 -62 -6 
3 0 -84 -124 -45 -51 55 -67 -4 -61 -10 -38 -60 -72 -59 -22 
3 0 -80 -110 -23 -29 57 -36 13 -39 -14 -9 -40 -48 -51 12 
3 0 -79 -103 -24 -39 58 -38 12 -37 -14 -9 -49 -43 -59 22 
3 0 -73 -109 -43 -69 34 -76 -5 -63 -27 -52 -77 -63 -69 -15 
3 0 -85 -121 -37 -59 34 -66 -5 -57 -23 -52 -62 -54 -50 -16 
3 0 -72 -116 -48 -60 33 -61 -18 -47 -35 -47 -69 -48 -42 -21 
3 0 -79 -121 -42 -56 35 -58 -2 -37 -27 -42 -71 -51 -24 -26 
3 0 -28 -96 -12 -42 29 -51 22 -29 -16 -40 -54 -29 -11 -4 
3 0 -53 -110 -2 -43 14 -55 32 -21 -34 -40 -46 -20 -12 8 
3 0 -68 -123 -48 -92 -31 -111 -17 -64 -58 -80 -96 -79 -41 -37 
3 0 -74 -123 -49 -74 -1 -97 -16 -63 -21 -67 -86 -86 -63 -30 
3 0 -40 -99 -22 -53 34 -66 12 -54 -18 -47 -56 -53 -74 -8 
3 0 -73 -123 -15 -53 37 -52 17 -52 -27 -47 -54 -36 -39 -14 
3 0 -64 -135 -49 -78 -8 -82 -36 -79 -33 -77 -85 -59 -30 -48 
3 0 -63 -122 -33 -46 13 -60 1 -48 -22 -51 -54 -33 -27 -24 
3 0 -42 -94 -6 -39 24 -49 35 -28 -20 -32 -46 -22 -14 -6 
3 0 -74 -104 -12 -51 4 -55 9 -34 -17 -37 -64 -40 -1 -10 
3 0 -67 -100 -33 -42 -7 -55 -5 -41 -30 -36 -63 -54 -32 -4 
3 0 -63 -93 -17 -19 3 -42 23 -17 -39 -19 -44 -17 -12 20 
3 0 -74 -100 -21 -54 -24 -61 -3 -32 -41 -35 -63 -27 -6 6 
3 0 -84 -103 -51 -89 -21 -73 -33 -77 -35 -51 -84 -95 -60 -15 
3 0 -83 -98 -51 -51 24 -46 -5 -63 -19 -25 -68 -88 -71 -10 
3 0 -64 -98 -37 -29 -1 -32 1 -43 -35 -17 -65 -26 -34 -15 
3 0 -84 -112 -28 -38 -27 -25 -2 -56 -35 -13 -74 -36 -24 -3 
3 0 -69 -104 -31 -51 -6 -40 6 -87 -24 -18 -100 -91 -35 0 
3 0 -80 -117 -32 -52 -2 -53 -2 -83 -33 -35 -105 -84 -16 -30 
3 0 -56 -117 -54 -89 -42 -79 -53 -81 -64 -78 -116 -72 -38 -67 
2 0 -77 -133 -59 -93 -42 -82 -49 -67 -62 -77 -112 -69 -52 -59 
2 0 -47 -114 -44 -75 -44 -78 -11 -54 -56 -62 -105 -55 -39 -53 
2 0 -38 -103 -14 -34 -20 -29 23 -11 -31 -30 -64 -23 -9 -33 
2 0 -21 -92 -27 -41 -12 -31 -13 -26 -30 -36 -65 -33 -12 -30 
2 0 -47 -106 -27 -45 1 -35 -15 -35 -32 -28 -62 -23 1 -10 
2 0 -30 -90 -13 -43 -4 -26 6 -25 -22 -18 -60 -28 -12 12 
2 0 -66 -89 -7 -20 12 -7 25 -10 -8 -2 -58 -30 -25 18 
2 0 -75 -93 -29 -36 -16 -40 -4 -38 -39 -29 -94 -26 -21 -23 
2 0 -82 -103 -29 -51 -41 -49 -11 -38 -57 -44 -102 -27 -13 -42 
2 0 -84 -109 -45 -60 -55 -46 -21 -38 -62 -52 -102 -67 -62 -53 
2 0 -110 -122 -65 -62 -65 -54 -34 -46 -73 -63 -104 -69 -81 -65 
2 0 -100 -123 -56 -72 -92 -72 -36 -40 -91 -76 -105 -45 -34 -69 
2 0 -79 -121 -43 -85 -103 -89 -32 -38 -88 -82 -111 -46 -9 -72 
1 0 -110 -135 -48 -81 -71 -79 -42 -44 -62 -72 -104 -56 -33 -73 
1 0 -96 -129 -53 -79 -49 -69 -50 -54 -60 -67 -90 -63 -37 -66 
1 0 -65 -115 -18 -54 -42 -46 6 -37 -54 -43 -68 -32 13 -37 
1 0 -37 -98 -10 -50 -64 -51 24 -41 -65 -48 -85 -11 18 -41 
1 0 -82 -118 -24 -49 -68 -51 -7 -52 -79 -52 -87 -45 -23 -47 
1 0 -61 -116 -47 -76 -92 -70 -32 -72 -81 -60 -95 -94 -53 -51 
0 0 -59 -115 -36 -67 -63 -62 6 -53 -51 -44 -92 -70 -23 -42 
0 0 -52 -102 -40 -70 51 -72 -15 -64 -68 -64 -110 -56 -7 -65 
0 0 -77 -112 -33 -45 248 -44 -15 -43 -66 -49 -78 -41 -7 -47 
0 0 -44 -89 -21 -14 367 -15 7 -8 -36 -8 -46 -20 -22 -12 
0 0 -59 -92 -23 6 394 -8 11 5 -33 1 -28 -2 -3 -22 
0 0 -57 -101 -44 -20 394 -39 -25 -18 -67 -38 -47 -16 -5 -61 
0 0 -86 -112 -29 -10 444 -19 -8 -3 -69 -20 -49 -21 -19 -29 
0 0 -65 -100 -21 -6 463 -17 5 -19 -65 -12 -58 -55 -30 -24 
0 0 -62 -110 -36 -28 459 -31 -4 -43 -65 -45 -59 -76 -24 -63 
-1 0 -77 -120 -53 -56 470 -49 -23 -55 -73 -67 -72 -79 -35 -75 
-1 0 -99 -115 -44 -63 496 -80 -27 -59 -78 -67 -85 -68 -39 -63 
-1 0 -99 -115 -39 -62 486 -95 -25 -50 -75 -74 -74 -63 -22 -77 
-1 0 -77 -106 -45 -45 487 -52 -24 -39 -72 -62 -57 -53 -9 -80 
-1 0 -80 -99 -48 -11 506 -5 -27 -34 -74 -28 -53 -45 -26 -62 
0 0 -65 -96 -54 -13 475 -19 -45 -38 -86 -34 -64 -38 -24 -67 
0 0 -85 -111 -47 -8 457 -4 -40 -17 -85 -30 -46 -10 14 -69 
0 0 -59 -93 -55 2 450 12 -45 -36 -101 -20 -52 -31 -17 -81 
0 0 -65 -92 -60 17 447 26 -40 -45 -99 -6 -48 -75 -66 -75 
0 0 -48 -93 -62 13 433 32 -42 -34 -88 -11 -31 -78 -67 -63 
0 0 -63 -97 -37 44 439 71 -14 9 -75 10 9 -26 -21 -50 
0 0 -32 -79 -42 41 382 67 -33 7 -107 -5 7 -25 -20 -86 
0 0 -42 -95 -53 40 346 73 -45 0 -121 -8 7 -34 -28 -102 
0 0 -41 -96 -64 39 335 79 -54 -24 -125 -15 -14 -38 -31 -101 
0 0 -82 -107 -57 50 321 87 -50 -25 -130 -23 -19 -32 12 -106 
0 0 -73 -96 -54 36 278 64 -66 -15 -147 -38 -17 -41 23 -132 
0 0 -85 -93 -42 42 287 68 -43 23 -139 -21 8 -23 -12 -125 
0 0 -87 -95 -57 28 274 60 -42 11 -148 -36 8 -29 -52 -133 
0 0 -110 -109 -65 15 238 48 -55 -13 -160 -67 -3 -55 -33 -153 
0 0 -101 -100 -44 25 239 45 -40 -8 -134 -62 -15 -59 -12 -147 
0 0 -93 -88 -34 44 273 59 -16 4 -108 -38 -6 -34 -21 -131 
0 0 -115 -106 -63 25 260 48 -51 -17 -130 -42 -4 -43 -36 -143 
0 0 -101 -118 -86 -13 222 15 -88 -36 -155 -68 -25 -57 -27 -155 
0 0 -98 -124 -64 -5 228 17 -56 -14 -138 -65 -19 -34 -17 -150 
0 0 -87 -118 -64 -9 224 16 -49 -38 -150 -76 -23 -46 -23 -172 
0 0 -102 -125 -75 -13 210 16 -70 -40 -167 -90 -21 -54 -5 -176 
-1 0 -63 -113 -84 -12 183 2 -81 -10 -170 -107 -29 -30 -5 -171 
-1 0 -83 -122 -65 9 197 27 -37 10 -156 -86 -13 -23 0 -163 
-1 0 -68 -105 -55 -5 205 29 -31 -28 -151 -83 -6 -68 -1 -162 
-1 0 -81 -110 -58 -6 190 22 -50 -31 -146 -90 -12 -61 1 -155 
-1 0 -71 -117 -85 -25 150 -6 -80 -36 -168 -111 -57 -48 -15 -177 
-1 0 -87 -133 -74 -25 167 -18 -55 -17 -158 -97 -36 -34 -2 -170 
-1 0 -74 -115 -64 -26 160 -45 -50 -2 -150 -105 -11 -29 -4 -176 
-1 0 -111 -117 -59 13 148 7 -50 22 -148 -91 6 -6 -6 -178 
0 0 -99 -105 -64 40 135 68 -58 31 -165 -75 13 3 -1 -170 
0 0 -105 -110 -73 37 108 70 -66 42 -185 -79 26 9 8 -169 
0 0 -105 -111 -89 18 67 56 -90 22 -196 -93 22 -7 -7 -204 
0 0 -105 -99 -70 51 78 112 -64 28 -173 -69 49 0 -4 -193 
0 0 -93 -96 -70 66 66 131 -49 40 -175 -75 54 3 1 -184 
0 0 -106 -116 -90 47 25 119 -66 32 -207 -106 44 -15 -3 -214 
0 0 -131 -117 -70 66 9 162 -54 41 -197 -85 70 -18 -9 -216 
0 0 -96 -88 -56 83 -64 188 -47 30 -199 -76 64 -13 -15 -206 
0 0 -81 -100 -75 84 -178 186 -60 14 -228 -86 47 -18 -14 -213 
0 0 -81 -109 -95 85 -248 187 -79 19 -237 -99 57 -22 -13 -239 
0 0 -122 -103 -68 116 -256 229 -59 66 -210 -76 90 14 14 -241 
0 0 -81 -72 -59 118 -309 229 -67 63 -222 -66 77 20 20 -240 
0 0 -73 -70 -54 137 -332 238 -58 61 -222 -45 94 15 16 -210 
0 0 -56 -59 -50 148 -315 247 -42 65 -190 -30 113 21 -5 -188 
0 0 -73 -73 -29 169 -292 267 -17 83 -155 -9 125 49 13 -169 
0 0 -49 -71 -48 140 -344 234 -50 61 -193 -35 90 16 13 -186 
0 0 -59 -73 -57 127 -357 228 -52 68 -210 -38 91 7 13 -184 
0 0 -37 -54 -29 139 -330 242 -25 73 -169 -13 114 37 27 -161 
0 0 -80 -71 -9 151 -327 252 -12 69 -141 -3 113 49 55 -151 
0 0 -92 -77 -47 111 -390 213 -56 44 -182 -46 58 16 38 -179 
0 0 -93 -71 -54 95 -408 193 -53 48 -190 -57 54 21 28 -178 
0 0 -94 -72 -41 101 -403 191 -42 39 -173 -59 68 30 34 -175 
0 0 -116 -84 -47 104 -413 196 -52 38 -184 -63 61 28 39 -181 
0 0 -96 -69 -52 105 -431 195 -57 76 -190 -46 68 50 29 -179 
0 0 -65 -46 -37 118 -423 198 -45 109 -171 -20 93 91 32 -163 
0 0 -103 -69 -39 121 -421 197 -53 90 -177 -20 89 76 46 -157 
0 0 -95 -80 -50 111 -444 182 -65 51 -190 -35 66 35 36 -169 
0 0 -59 -61 -16 134 -422 212 -21 70 -151 -7 86 40 27 -152 
0 0 -25 -31 -4 135 -411 224 -7 67 -135 3 86 46 19 -127 
0 0 -73 -57 -27 122 -435 200 -32 34 -153 -5 80 28 7 -130 
0 0 -50 -60 -47 99 -462 156 -68 -7 -166 -33 50 -7 -14 -169 
0 0 -37 -50 -18 111 -438 177 -38 15 -148 -31 48 6 10 -154 
0 0 -20 -37 -26 96 -469 167 -43 18 -161 -42 44 13 11 -146 
0 0 -66 -67 -39 95 -468 157 -58 13 -154 -34 52 11 16 -148 
0 0 -54 -54 -20 97 -422 161 -50 6 -134 -26 34 6 41 -146 
0 0 -46 -42 7 122 -391 197 -2 46 -114 1 58 47 51 -115 
0 0 -36 -41 -15 108 -429 178 -18 50 -128 -4 74 50 17 -122 
0 0 -90 -66 -25 97 -441 159 -41 36 -133 -7 62 37 33 -129 
0 0 -65 -59 -18 103 -432 170 -40 22 -128 -3 43 33 35 -120 
0 0 -46 -50 -3 120 -410 192 -18 48 -113 7 63 60 29 -110 
0 0 -55 -52 -10 105 -419 164 -31 60 -118 -10 73 62 39 -131 
0 0 -69 -60 -20 93 -434 148 -40 43 -127 -20 74 45 34 -142 
0 0 -72 -63 -16 93 -425 160 -22 36 -119 -21 76 31 13 -127 
0 0 -67 -57 -21 87 -425 153 -33 48 -132 -31 63 30 19 -125 
0 0 -76 -60 -31 84 -440 145 -61 62 -150 -26 58 41 43 -134 
0 0 -62 -57 -35 69 -454 134 -58 49 -144 -35 51 48 51 -151 
0 0 -79 -71 -22 74 -446 129 -22 46 -125 -37 48 42 55 -144 
0 0 -38 -55 -20 76 -450 125 -27 27 -137 -28 32 14 28 -123 
0 0 -58 -52 -14 95 -421 163 -28 33 -117 10 50 29 19 -91 
0 0 -53 -43 -27 83 -418 154 -40 36 -99 3 48 46 13 -103 
0 0 -49 -52 -17 104 -414 155 -29 68 -92 11 62 55 21 -97 
0 0 -3 -33 0 117 -415 167 -25 70 -96 26 71 49 20 -79 
0 0 -12 -39 9 116 -392 178 -11 63 -80 44 89 62 37 -57 
0 0 1 -41 -9 90 -398 147 -25 51 -90 25 64 51 25 -67 
0 0 -21 -47 -6 101 -393 158 -16 67 -88 20 61 51 31 -76 
0 0 -21 -41 -15 81 -418 141 -39 40 -101 -5 51 47 54 -101 
0 0 -54 -59 -23 61 -432 118 -51 24 -114 -24 45 44 53 -101 
0 0 -56 -57 -23 76 -420 134 -38 39 -104 -11 52 15 -9 -84 
0 0 -62 -44 -11 99 -386 163 -14 51 -77 15 67 6 -21 -66 
0 0 -59 -52 -13 74 -394 130 -27 21 -85 -6 43 10 5 -85 
0 0 -75 -66 -20 59 -407 108 -38 4 -98 -32 25 10 12 -102 
0 0 -93 -59 -6 87 -381 140 -14 26 -78 -8 52 13 20 -73 
0 0 -64 -46 -2 90 -371 146 -6 29 -75 15 58 17 23 -54 
0 0 -48 -57 -12 80 -393 129 -24 19 -87 17 54 13 9 -71 
0 0 -27 -58 -24 68 -406 112 -55 18 -94 -4 48 8 7 -95 
0 0 -57 -71 -17 74 -390 125 -41 44 -93 4 50 23 31 -71 
0 0 -30 -54 -17 60 -416 117 -27 37 -114 9 36 19 17 -57 
0 0 -27 -50 -9 67 -411 120 -19 35 -98 15 49 23 8 -64 
0 0 -10 -45 -21 48 -389 99 -40 14 -85 -13 33 8 1 -98 
0 0 -44 -62 -8 65 -351 123 -11 33 -69 2 48 9 13 -75 
0 0 -29 -40 14 95 -336 153 14 48 -52 27 79 14 1 -34 
0 0 -32 -43 16 114 -329 165 18 59 -50 30 92 33 3 -36 
0 0 -29 -50 -24 81 -379 120 -26 22 -94 -16 44 22 -1 -89 
0 0 -85 -70 -29 78 -380 125 -22 16 -96 -9 39 14 -4 -85 
0 0 -77 -56 -14 93 -345 150 -5 35 -78 20 52 15 -18 -50 
0 0 -62 -40 -2 116 -342 165 1 62 -77 36 67 47 -2 -26 
0 0 -48 -31 0 120 -356 170 -5 67 -62 40 89 45 4 -32 
0 0 -59 -36 21 122 -309 182 16 74 -22 60 107 29 9 -26 
0 0 -47 -34 31 117 -280 166 22 77 -16 63 86 37 24 -12 
0 0 -30 -21 25 109 -297 147 10 75 -32 54 70 51 38 -5 
0 0 -41 -21 25 102 -301 154 18 79 -29 61 80 51 44 0 
0 0 -21 -24 33 88 -295 142 29 68 -27 50 69 61 62 3 
0 0 -16 -35 49 87 -288 132 39 67 -18 42 65 79 83 10 
0 0 10 -27 43 75 -284 123 32 68 -11 39 63 62 48 8 
0 0 -8 -33 43 89 -267 133 47 76 0 47 75 55 34 24 
0 0 9 -34 32 80 -285 117 32 38 -21 30 56 41 44 11 
0 0 -20 -47 30 82 -293 124 20 43 -34 34 58 38 53 -3 
0 0 -10 -30 14 77 -309 108 2 57 -48 23 54 38 39 -17 
0 0 -21 -39 22 94 -292 121 25 61 -34 34 76 48 45 3 
0 0 0 -39 22 85 -289 126 24 47 -29 31 72 39 31 4 
0 0 -11 -43 23 94 -272 142 30 89 -14 40 73 56 28 7 
0 0 12 -19 11 96 -266 134 20 94 -15 41 67 55 15 1 
0 0 -20 -17 35 115 -240 159 36 84 -6 64 87 69 49 21 
0 0 -22 -5 53 117 -242 166 41 73 -2 66 85 65 73 29 
0 0 -27 -9 38 106 -254 152 33 63 -8 60 71 48 36 16 
0 0 -27 -14 20 100 -258 140 17 54 -15 56 70 33 -8 -1 
0 0 -45 -14 30 112 -240 155 27 57 -9 68 80 34 32 9 
0 0 -49 -15 33 110 -237 160 32 42 -3 80 71 13 46 23 
0 0 -26 -3 30 117 -232 162 28 30 5 95 68 10 -2 38 
0 0 -17 5 53 139 -206 180 46 58 22 121 92 52 11 61 
0 0 7 3 60 129 -203 172 50 71 23 113 91 68 54 58 
0 0 -16 -22 44 129 -211 166 44 67 19 101 91 61 52 44 
0 0 5 -3 40 122 -207 156 44 48 21 99 84 54 30 46 
0 0 10 1 62 110 -187 150 68 50 32 105 73 58 47 62 
0 0 29 -5 56 82 -211 119 58 37 14 68 48 45 45 31 
0 0 -11 -27 51 89 -209 120 65 44 16 58 68 44 46 13 
0 0 3 -21 34 68 -218 97 42 26 5 35 61 20 27 -2 
0 0 -3 -32 29 70 -219 99 36 31 -8 33 52 15 12 -1 
0 0 5 -20 25 78 -213 111 34 35 -12 43 50 25 9 1 
0 0 -32 -25 39 110 -173 146 56 55 18 75 75 45 31 34 
0 0 -16 -19 28 97 -185 132 40 37 15 72 61 19 7 34 
0 0 -30 -27 19 65 -206 113 26 38 -6 63 49 20 0 12 
0 0 -37 -33 9 39 -227 91 3 28 -26 31 32 23 15 -10 
0 0 -57 -47 2 50 -234 84 -8 10 -36 21 31 8 26 -10 
0 0 -45 -35 3 65 -232 92 2 21 -33 51 45 -2 -7 -8 
0 0 -38 -21 9 67 -222 103 8 41 -27 62 49 18 -35 -10 
0 0 -48 -34 10 55 -235 88 -8 20 -35 33 21 17 -17 -20 
0 0 -29 -36 12 46 -241 69 -7 11 -41 28 14 18 17 -19 
0 0 -27 -25 24 66 -206 92 20 53 -18 65 51 39 16 9 
0 0 -16 -18 13 58 -203 90 6 43 -25 53 41 25 -6 5 
0 0 -45 -47 -3 37 -225 59 -8 12 -45 21 15 6 10 -30 
0 0 -28 -48 -12 17 -246 31 -13 -4 -53 -3 6 -12 8 -49 
0 0 -43 -57 -5 20 -227 51 1 13 -35 5 23 -22 -18 -23 
0 0 -20 -49 -20 -2 -231 33 -19 -8 -49 -10 -2 -36 -50 -34 
0 0 -40 -54 -18 12 -217 37 -13 -5 -51 -3 5 -18 -32 -37 
0 0 -31 -51 -24 10 -223 32 -25 -8 -49 -6 5 -16 -13 -42 
0 0 -36 -69 -10 7 -210 35 -12 -3 -35 4 6 -2 6 -31 
0 0 4 -55 -8 0 -196 23 -13 -15 -28 9 4 -11 -10 -25 
0 0 -24 -54 2 31 -164 56 1 16 -12 33 33 -7 -11 -6 
0 0 -29 -50 7 37 -162 66 9 24 -15 37 29 -9 -12 -12 
0 0 -37 -54 8 35 -165 57 18 6 -23 34 19 -12 -5 -15 
0 0 -21 -40 -6 22 -179 45 -12 -9 -28 26 13 -16 -10 -12 
0 0 -40 -34 5 31 -165 63 -8 14 -12 42 30 -6 -6 6 
0 0 -48 -28 19 43 -157 73 18 22 -5 51 30 -12 1 8 
0 0 -33 -24 8 32 -164 56 3 6 -17 41 11 -16 4 -5 
0 0 -35 -31 4 23 -167 47 -16 -1 -12 40 7 -17 3 -2 
0 0 -20 -31 15 30 -160 58 6 2 4 47 15 -21 2 10 
0 0 -18 -24 37 62 -129 92 47 36 24 77 41 11 21 31 
1 0 13 0 47 78 -119 101 40 52 24 94 52 45 44 40 
0 0 -3 -14 38 74 -140 92 13 36 11 91 53 35 53 37 
0 0 20 -8 14 51 -169 71 -14 8 -11 73 39 12 28 27 
0 0 12 1 34 83 -128 107 12 53 20 108 68 47 22 51 
0 0 33 12 36 85 -125 104 9 55 27 101 53 48 24 42 
0 0 13 -15 26 65 -147 80 -1 27 7 74 29 27 35 26 
0 0 20 -16 21 39 -157 54 -14 9 -11 57 22 23 32 20 
0 0 -9 -24 49 58 -118 79 20 37 14 82 42 41 53 39 
0 0 9 -13 46 60 -121 77 21 30 20 82 26 20 38 38 
0 0 -16 -9 42 73 -120 91 23 41 24 87 37 32 33 50 
0 0 -17 -2 42 72 -112 99 27 44 19 96 41 39 29 56 
0 0 -27 -6 42 75 -106 97 35 43 16 105 37 34 25 51 
0 0 -8 8 37 76 -123 84 12 47 22 93 44 40 21 34 
0 0 -15 4 41 79 -123 85 3 56 31 88 62 60 39 39 
0 0 -32 -21 32 58 -124 64 5 31 13 80 38 41 46 31 
0 0 -29 -29 16 20 -144 25 -18 2 -15 55 2 26 37 6 
0 0 -28 -14 18 31 -145 33 -26 13 -8 57 16 33 25 15 
0 0 1 8 30 68 -125 69 -8 21 4 79 46 18 7 45 
0 0 2 -8 37 74 -103 89 9 23 15 89 53 11 10 54 
0 0 23 -10 32 47 -107 63 0 12 23 65 21 19 10 34 
0 0 14 -4 51 72 -87 77 24 32 46 81 38 34 29 48 
0 0 41 15 61 85 -79 96 28 42 47 90 64 32 40 64 
0 0 9 -6 62 87 -69 107 34 51 55 96 69 44 41 74 
0 0 10 -10 43 55 -92 68 19 14 39 71 18 31 35 44 
0 0 -2 -24 44 39 -105 50 19 3 24 57 7 25 59 25 
0 0 11 -27 36 14 -125 20 -2 2 9 30 4 16 41 9 
0 0 -18 -37 52 36 -92 37 25 30 33 52 21 33 23 28 
0 0 11 -23 57 45 -91 46 32 27 42 68 18 33 21 28 
0 0 -1 -27 56 38 -102 42 17 26 34 56 24 33 37 17 
0 0 4 -17 46 24 -100 22 2 9 26 36 14 17 23 15 
0 0 -9 -14 54 33 -78 35 31 12 32 57 12 26 28 35 
0 0 -12 -16 59 27 -85 40 36 18 29 63 18 30 54 29 
0 0 -19 -14 58 22 -87 34 20 19 29 53 30 46 69 23 
0 0 -14 -2 55 34 -79 42 19 31 36 68 31 61 39 39 
0 0 0 9 60 50 -68 68 39 41 41 98 31 43 20 58 
0 0 -14 1 76 64 -53 81 54 36 55 113 47 25 58 68 
0 0 10 -1 67 54 -54 62 40 24 51 97 45 28 47 57 
0 0 4 -14 57 46 -54 55 36 50 44 89 49 40 9 47 
0 0 22 -13 53 28 -71 34 22 44 34 62 37 38 27 33 
0 0 0 -28 67 41 -72 35 29 43 42 60 45 53 72 36 
0 0 22 -12 60 37 -77 31 16 44 37 60 39 48 46 23 
0 0 18 -15 65 49 -57 55 22 66 47 74 54 61 46 35 
0 0 50 -10 79 54 -48 50 34 70 52 74 60 75 85 49 
0 0 27 -16 95 65 -26 57 54 72 58 88 71 70 91 58 
0 0 30 6 77 51 -35 60 33 53 54 81 55 57 58 46 
0 0 12 0 84 72 -25 82 49 73 64 97 70 90 80 56 
0 0 15 0 94 75 -22 78 60 58 61 103 68 67 69 60 
0 0 -15 7 99 79 -1 96 71 38 77 113 67 42 41 80 
0 0 11 27 88 85 1 104 65 46 85 114 72 62 43 91 
0 0 8 20 92 95 -7 108 59 67 72 125 84 81 65 93 
0 0 -5 15 94 88 -18 109 47 46 62 126 67 44 52 91 
0 0 -10 21 96 93 0 114 66 48 85 124 71 44 55 103 
0 0 -13 12 96 102 11 109 76 67 96 129 90 72 72 99 
0 0 3 3 89 82 -21 81 45 40 68 120 64 66 80 72 
0 0 4 0 91 78 -31 75 41 36 56 117 53 66 90 70 
0 0 45 20 84 79 -15 78 47 54 60 111 68 70 62 82 
0 0 53 26 79 83 -6 83 47 67 71 117 80 66 26 92 
0 0 68 31 70 64 -38 54 24 48 49 96 54 60 28 74 
0 0 27 -2 83 71 -29 68 43 55 51 102 57 65 67 79 
0 0 43 -1 83 63 -16 74 44 36 58 108 46 36 61 79 
0 0 39 12 93 71 -2 83 52 45 68 119 60 44 63 92 
0 0 53 34 93 78 -8 78 52 67 70 116 75 78 73 101 
0 0 34 12 98 104 10 104 65 85 90 138 85 95 78 110 
0 0 49 5 88 89 -2 91 38 56 81 123 56 61 65 87 
0 0 22 -4 96 86 -3 83 40 61 74 110 68 60 79 83 
0 0 29 9 93 81 -12 81 47 65 76 107 80 66 72 77 
0 0 7 12 96 93 4 107 58 80 83 127 92 86 66 87 
0 0 10 14 92 90 10 103 50 85 68 119 93 85 61 89 
0 0 1 -2 79 72 -6 75 36 87 51 85 85 86 70 64 
0 0 -6 -15 52 49 -42 51 9 74 29 55 65 85 65 32 
0 0 -12 -15 47 41 -38 53 6 57 20 58 53 70 63 40 
0 0 -18 -2 73 59 0 88 35 73 53 96 70 66 69 81 
0 0 13 9 74 70 2 95 33 78 69 105 73 76 68 81 
0 0 16 -4 70 74 0 84 31 74 61 100 65 80 69 67 
0 0 36 11 77 76 9 82 40 69 63 106 55 76 60 85 
0 0 17 11 77 87 13 95 47 78 75 124 62 84 51 108 
0 0 48 12 56 62 -14 67 18 50 49 97 52 62 37 80 
0 0 38 2 71 70 -2 74 25 50 53 102 62 65 68 78 
0 0 48 19 66 77 -9 79 17 50 58 114 51 69 71 79 
0 0 34 6 59 85 -10 85 20 68 60 122 61 67 53 79 
0 0 61 7 63 65 -16 61 17 65 50 97 60 65 48 72 
0 0 32 -17 67 61 -6 59 24 65 46 91 64 81 73 78 
0 0 27 -24 41 30 -22 39 0 29 36 68 35 36 52 55 
0 0 -4 -26 44 28 -14 44 7 20 44 70 28 11 32 50 
0 0 0 -16 38 27 -36 35 -12 9 22 59 18 24 21 39 
0 0 -21 -21 39 33 -43 38 -12 16 15 55 26 39 27 39 
0 0 -20 -20 48 31 -24 35 2 17 39 57 29 24 29 41 
0 0 -21 -21 53 36 -13 35 1 15 49 62 23 31 37 40 
0 0 -7 -8 56 47 -15 45 -10 32 47 70 36 50 42 52 
0 0 9 -4 62 45 2 47 5 46 57 76 50 57 43 68 
0 0 -15 -30 61 45 10 45 18 47 66 80 56 55 40 63 
0 0 7 -22 49 43 -15 38 -1 40 53 65 50 43 33 45 
0 0 32 -9 51 46 -14 40 4 48 49 63 48 45 44 52 
0 0 55 0 53 42 -2 32 12 42 45 65 37 68 50 62 
0 0 20 -6 68 65 19 61 25 65 61 96 65 81 43 80 
0 0 43 4 50 38 -5 37 -5 49 48 71 53 36 15 54 
0 0 25 -19 35 11 -26 8 -21 15 25 37 21 14 27 28 
0 0 30 -7 32 18 -25 15 -23 10 16 47 16 31 32 29 
0 0 13 -6 48 56 14 59 5 57 46 90 57 58 21 64 
0 0 25 -4 34 43 1 39 -9 34 44 65 42 28 -2 52 
0 0 4 -11 37 47 -4 47 -2 23 41 62 42 30 28 44 
0 0 21 -3 42 46 -6 53 -1 35 40 71 43 45 41 45 
0 0 -17 -28 38 37 -6 32 -3 36 41 51 34 38 24 50 
0 0 -13 -28 21 8 -23 -4 -20 -2 25 12 9 1 4 27 
0 0 -2 -18 36 13 -16 8 -5 19 31 20 27 21 34 19 
0 0 -1 -26 48 23 -17 15 0 49 39 28 41 37 47 21 
0 0 -19 -35 38 22 -14 11 -9 25 31 26 43 16 33 30 
0 0 -11 -18 37 25 1 23 -6 12 31 39 45 22 36 45 
0 0 16 1 43 38 16 38 1 44 46 52 39 48 27 58 
0 0 4 -10 38 53 31 47 -3 55 62 69 44 38 0 74 
0 0 19 -6 32 34 29 33 -15 14 58 70 34 10 -2 76 
0 0 22 -3 49 37 39 37 5 24 65 78 30 28 24 78 
0 0 55 17 53 55 38 47 18 48 65 78 35 44 19 75 
0 0 19 0 45 71 34 63 19 45 55 83 55 28 21 73 
0 0 18 -6 25 38 7 36 -9 16 34 54 35 22 18 49 
0 0 24 -11 46 48 37 55 13 50 58 67 52 71 31 69 
0 0 58 -1 52 51 44 62 20 38 61 75 50 42 17 70 
0 0 21 -29 41 44 30 49 19 15 43 65 37 -1 9 49 
0 0 26 -31 24 16 9 14 3 7 28 33 19 3 -5 27 
0 0 16 -36 31 19 29 30 13 15 46 39 36 8 -9 37 
0 0 10 -34 12 8 9 21 -9 -15 34 27 24 -34 -38 21 
0 0 -39 -47 11 10 2 13 -10 0 16 24 16 -8 -30 20 
0 0 -25 -36 30 2 13 11 -3 14 14 26 2 15 -4 26 
0 0 -20 -35 24 -24 0 -13 -19 -25 15 6 -24 -27 -4 7 
0 0 -27 -54 -7 -52 -41 -55 -50 -71 0 -30 -50 -59 -26 -29 
0 0 -30 -59 4 -34 -22 -35 -33 -44 10 -13 -30 -16 -17 -15 
0 0 -30 -39 33 0 25 12 -4 13 37 33 14 22 2 18 
0 0 -13 -30 19 -9 16 -4 -17 0 28 23 6 -2 -10 6 
0 0 -13 -49 10 -23 -1 -25 -22 -20 14 -1 -13 -17 -15 -10 
0 0 2 -50 15 -29 -8 -25 -16 -7 10 -16 -10 -4 -8 -12 
0 0 -29 -68 9 -20 -3 -19 -9 -1 7 -15 -1 -9 -10 -10 
0 0 3 -62 -9 -39 -16 -44 -29 -39 -15 -30 -28 -41 -25 -27 
0 0 6 -51 11 -25 -8 -24 -18 -19 -5 -9 -16 -15 -4 -15 
0 0 17 -35 12 -17 -13 -13 -19 -4 -6 0 -8 2 -22 -12 
0 0 -12 -53 7 -14 -7 -15 -15 -7 -11 2 1 -8 -21 -9 
0 0 10 -41 -3 -35 -24 -45 -39 -30 -20 -11 -22 -20 -8 -19 
0 0 7 -39 4 -14 -4 -16 -28 -1 -6 18 -15 1 -23 5 
0 0 23 -28 -6 5 4 8 -29 6 0 38 -3 1 -62 14 
0 0 -17 -40 0 21 6 17 -22 -7 10 44 8 -5 -38 13 
0 0 -10 -30 12 9 0 3 -20 -25 7 33 -4 -11 -16 9 
0 0 -8 -28 24 18 28 21 1 3 16 49 10 6 -10 32 
0 0 -13 -34 19 23 31 29 -5 15 21 55 22 8 -4 34 
0 0 -39 -44 17 13 17 17 -13 14 9 35 17 10 7 14 
0 0 -29 -36 13 -6 11 -4 -13 9 -3 10 1 6 1 -1 
0 0 -9 -26 24 5 28 2 -3 15 11 27 5 22 21 17 
0 0 -29 -30 44 30 47 30 11 38 29 63 25 38 39 43 
0 0 -16 -25 49 18 39 25 12 28 18 57 24 23 29 35 
0 0 6 -30 43 13 28 14 12 3 7 42 19 1 10 25 
0 0 28 -30 21 1 10 0 -11 -8 -5 18 8 -11 -10 11 
0 0 -18 -46 24 12 27 19 -3 23 10 23 22 5 3 20 
0 0 8 -30 26 19 38 20 1 15 12 36 5 9 -4 26 
0 0 20 -28 23 28 46 25 5 9 9 56 5 14 -13 34 
0 0 37 -13 19 10 36 15 -9 10 8 45 6 9 -10 30 
0 0 6 -22 49 29 64 39 17 40 37 64 29 35 24 49 
0 0 26 -16 39 28 52 28 3 20 26 65 13 29 12 43 
0 0 23 -29 19 20 34 18 -15 0 9 61 2 5 2 44 
0 0 44 -26 19 -4 32 5 -19 -17 4 46 -16 -16 -1 40 
0 0 5 -28 44 15 58 23 14 8 22 60 8 14 27 49 
0 0 -7 -16 44 25 51 20 9 20 27 61 22 26 35 45 
0 0 -6 -23 33 12 52 14 -3 19 21 51 7 25 18 38 
0 0 6 -38 19 -10 41 -1 -18 1 -6 22 -16 27 13 16 
0 0 -24 -45 19 0 26 4 -13 8 -11 15 -1 31 23 9 
0 0 -36 -38 26 14 29 18 4 33 12 30 17 21 -9 19 
0 0 -7 -36 25 2 34 4 1 27 11 29 4 19 -6 9 
0 0 -12 -40 28 7 38 1 -9 21 7 31 5 31 36 0 
0 0 5 -30 28 21 44 15 -9 27 15 36 25 30 7 16 
0 0 7 -35 26 30 53 29 7 35 22 39 46 28 -24 37 
0 0 31 -30 11 9 38 3 -8 5 4 21 14 14 -7 20 
0 0 13 -38 24 18 50 14 8 12 13 39 7 14 11 21 
0 0 30 -35 31 23 41 21 11 13 9 38 13 11 2 22 
0 0 7 -53 26 16 29 15 0 0 -4 29 14 2 10 19 
0 0 26 -42 5 -18 11 -14 -28 -31 -17 13 -23 -20 -5 2 
0 0 5 -54 20 -10 27 -4 -4 -13 -4 20 -13 -8 21 1 
0 0 1 -56 30 -15 18 -14 3 -15 -7 1 -11 3 52 -18 
0 0 -19 -61 37 -7 32 0 10 3 7 8 -3 40 35 -4 
0 0 4 -50 23 -17 27 -7 -2 5 1 2 -7 26 -22 -1 
0 0 -33 -75 16 -24 13 -18 -1 -11 -18 -17 -5 -21 -17 -15 
0 0 -38 -82 8 -34 -10 -33 -13 -30 -33 -33 -10 -29 -6 -32 
0 0 -33 -75 5 -32 -7 -27 -13 -7 -25 -26 1 9 -21 -31 
0 0 -21 -64 -3 -39 -4 -31 -14 -6 -21 -31 -3 -5 -39 -36 
0 0 -33 -66 -3 -40 1 -34 -14 -24 -27 -36 -13 -28 -28 -36 
0 0 -40 -70 8 -30 6 -30 -9 -16 -24 -25 -3 -21 -16 -21 
0 0 -14 -60 22 -26 11 -35 4 -11 -14 -23 4 -8 2 -15 
0 0 -16 -64 20 -28 16 -40 9 -20 -4 -25 -17 -9 9 -21 
0 0 -5 -63 10 -40 17 -41 1 -27 -5 -28 -31 -21 -9 -26 
0 0 -23 -70 32 -29 33 -24 21 -3 6 -12 -5 5 9 -10 
0 0 1 -60 30 -43 15 -46 11 -19 -7 -28 -23 17 33 -23 
0 0 -15 -74 21 -50 10 -47 4 -36 -10 -32 -34 -4 24 -36 
0 0 11 -63 25 -47 16 -39 3 -30 -3 -24 -25 -18 -5 -33 
0 0 3 -57 47 -3 40 -4 29 24 12 11 14 28 20 -1 
0 0 22 -41 24 1 17 -1 2 18 -8 14 5 32 14 -7 
0 0 12 -49 10 6 15 14 -11 12 -4 24 9 18 -5 -10 
0 0 36 -35 19 2 14 6 -11 16 1 14 9 24 11 -9 
0 0 5 -41 43 12 36 13 16 41 13 16 24 62 57 13 
0 0 3 -44 27 1 36 -4 10 21 11 11 9 41 25 8 
0 0 -7 -47 20 3 35 -8 12 14 20 18 7 9 3 7 
0 0 -4 -34 28 -8 24 -9 2 15 20 12 9 9 32 2 
0 0 -32 -43 28 -4 36 2 1 16 19 16 8 32 33 -4 
0 0 -22 -42 18 18 47 12 8 15 29 26 3 30 -19 -2 
0 0 -7 -27 20 21 40 16 8 11 30 25 9 21 -24 2 
0 0 -28 -33 20 15 31 18 -6 13 19 26 15 16 14 -6 
0 0 -11 -28 18 42 47 37 -4 27 23 54 23 19 9 10 
0 0 1 -21 19 73 68 61 12 41 38 81 48 26 -10 39 
0 0 22 -18 9 44 50 37 -4 25 22 51 39 24 -3 24 
0 0 0 -37 24 41 52 35 8 40 20 53 30 35 21 22 
0 0 16 -31 28 34 45 24 10 33 18 46 14 24 18 18 
0 0 1 -37 36 28 47 23 14 25 25 33 25 27 42 14 
0 0 32 -25 36 20 48 17 6 15 30 31 20 34 44 10 
0 0 10 -39 34 39 73 40 24 34 45 54 31 36 6 27 
0 0 7 -32 19 25 59 31 19 33 32 36 28 23 -15 12 
0 0 6 -26 43 39 74 52 38 51 47 51 47 46 35 38 
0 0 47 -10 44 47 91 57 36 28 60 74 36 22 21 67 
1 0 9 -23 39 55 104 62 37 26 66 93 34 7 -2 74 
0 0 2 -10 45 52 94 58 38 36 68 102 37 21 16 61 
0 0 -2 -6 49 45 88 51 39 18 63 103 23 17 26 54 
0 0 11 -11 26 14 55 19 9 -29 36 68 -17 -15 -1 27 
0 0 0 -21 33 25 55 22 11 -6 43 60 -3 14 17 25 
0 0 -4 -24 61 44 76 38 34 39 62 73 26 53 50 32 
0 0 1 -27 46 16 58 13 19 26 36 41 18 34 44 7 
0 0 -8 -36 22 -1 42 -7 5 13 29 16 13 10 19 -2 
0 0 23 -25 56 30 75 20 48 40 68 45 29 31 30 37 
0 0 24 -27 87 55 102 43 78 62 89 73 36 67 72 65 
0 0 44 -22 53 18 68 8 28 26 58 42 8 47 52 42 
0 0 35 -22 43 13 65 5 17 22 55 46 14 22 15 40 
0 0 62 -8 49 16 58 3 20 25 56 56 12 23 28 33 
0 0 26 -24 53 30 62 17 23 35 58 64 18 42 54 32 
0 0 30 -10 41 24 60 5 15 23 43 55 6 25 6 34 
0 0 28 -13 49 34 70 10 37 36 47 63 17 23 -5 52 
0 0 49 -10 44 20 49 -1 24 27 46 48 10 26 19 30 
0 0 31 -11 59 36 81 22 47 41 65 61 24 45 36 42 
0 0 50 -3 53 28 92 9 41 31 61 52 10 32 11 53 
0 0 23 -26 43 14 70 -6 27 23 57 44 5 26 17 47 
0 0 19 -23 41 9 53 -7 29 12 58 39 4 18 22 30 
0 0 2 -22 42 18 68 -1 38 12 50 41 -3 19 21 29 
0 0 1 -26 27 6 58 -12 14 10 36 37 -16 26 17 22 
0 0 -10 -32 29 6 59 -3 15 15 43 43 2 37 41 24 
0 0 -18 -38 38 16 76 9 38 13 44 40 12 16 46 19 
0 0 -14 -39 31 22 77 15 35 8 39 38 6 -4 5 6 
0 0 -13 -33 38 42 79 38 36 23 59 70 22 23 0 28 
0 0 28 -17 50 41 82 35 38 12 65 80 17 39 27 56 
0 0 21 -31 47 31 90 23 41 8 60 73 8 25 20 58 
0 0 31 -34 32 9 76 5 24 13 47 50 0 15 -11 38 
0 0 14 -45 40 0 68 1 24 31 46 43 3 27 9 33 
0 0 31 -35 28 -24 48 -21 11 7 22 25 -21 25 28 9 
0 0 -7 -58 15 -17 52 -11 15 3 9 13 -17 30 35 -8 
0 0 10 -60 8 -22 42 -23 6 -10 2 -21 -19 3 7 -26 
0 0 12 -62 27 -9 65 -10 27 2 30 -4 2 -7 -1 -13 
0 0 24 -43 21 -9 76 1 27 0 43 18 -4 -12 -7 5 
0 0 -5 -42 27 19 102 33 43 14 62 46 1 7 8 49 
0 0 13 -29 23 27 100 32 37 2 60 54 -5 -7 -1 61 
0 0 -5 -30 13 25 86 31 26 -18 36 61 -4 -11 -11 49 
0 0 -4 -27 5 14 50 20 3 -28 10 49 -11 6 -10 27 
0 0 -15 -32 19 29 48 24 6 7 20 59 1 34 13 27 
0 0 -8 -32 25 36 61 29 20 27 39 69 7 27 -1 27 
0 0 -6 -32 26 27 66 31 27 10 41 60 0 16 -18 31 
0 0 -13 -34 25 13 60 24 16 -7 28 50 -5 23 12 29 
0 0 4 -29 32 18 69 24 26 4 32 60 2 31 34 30 
0 0 8 -29 58 47 101 46 64 31 63 83 22 34 20 60 
0 0 33 -26 47 18 88 23 45 5 55 60 4 13 7 62 
0 0 21 -42 23 -15 61 3 17 -14 32 40 -6 1 12 42 
0 0 41 -32 15 -3 50 3 13 -7 17 40 1 11 -1 29 
0 0 14 -36 28 29 72 21 28 19 27 52 15 32 18 41 
0 0 23 -31 11 -2 55 -5 5 -3 21 22 -17 11 11 16 
0 0 4 -38 20 2 58 0 20 3 33 30 -9 20 7 19 
0 0 17 -27 25 5 51 -11 14 -2 24 27 -7 33 9 24 
0 0 6 -52 18 3 57 -11 15 14 19 14 -4 36 13 20 
0 0 31 -44 9 -12 50 -15 14 23 26 4 -2 24 -10 10 
0 0 -7 -44 17 -3 50 -6 18 28 26 23 16 33 -2 16 
0 0 -8 -51 7 -12 18 -28 -12 11 -11 13 -2 32 10 -5 
0 0 -12 -55 14 -9 19 -26 -6 35 -9 8 3 47 24 -4 
0 0 -8 -37 21 -21 29 -26 6 36 14 -9 6 33 16 -1 
0 0 -26 -50 19 -27 28 -37 11 15 12 -27 -10 7 5 -16 
0 0 -18 -62 17 -22 24 -41 11 11 0 -23 -16 -6 -2 -22 
0 0 -16 -47 17 -23 31 -24 17 18 8 -9 0 4 5 -5 
0 0 -37 -51 2 -33 23 -26 6 13 4 -13 -4 6 -4 -10 
0 0 -19 -58 -8 -36 3 -49 -14 -1 -14 -26 -25 3 -12 -28 
0 0 -20 -57 8 -18 24 -35 -1 7 -1 -6 -19 15 11 -15 
0 0 2 -47 10 -15 35 -21 6 3 4 12 -20 17 16 -5 
0 0 1 -53 15 -3 35 -8 14 4 7 23 -11 8 0 1 
0 0 32 -35 5 -20 15 -29 -7 -10 -9 1 -21 -4 -11 -11 
0 0 7 -46 8 -9 27 -7 -6 18 -12 16 -7 42 34 -7 
0 0 23 -30 8 11 45 34 -7 18 -7 44 9 43 24 3 
0 0 19 -22 13 35 89 83 17 5 13 70 24 -3 -26 40 
0 0 37 -20 -4 18 111 90 8 -14 5 66 -14 -23 -47 59 
0 0 8 -40 4 38 161 143 14 22 33 110 -4 21 -9 90 
0 0 19 -19 9 48 176 167 6 38 58 134 19 29 12 114 
0 0 7 -17 12 42 173 165 8 36 39 140 22 27 14 146 
0 0 29 -10 14 46 190 183 2 19 30 165 -4 24 -7 172 
0 0 9 -5 36 87 238 246 23 31 73 225 6 46 9 213 
0 0 1 3 40 90 230 252 33 44 76 239 25 54 20 218 
0 0 -4 -11 27 69 203 218 24 37 48 209 29 33 -11 180 
0 0 -8 -33 15 52 187 182 6 19 45 162 6 3 -29 134 
0 0 -10 -53 16 27 177 138 11 13 54 103 -12 8 -4 96 
0 0 -21 -65 24 8 177 100 34 17 59 73 -7 20 -6 75 
0 0 8 -54 18 -1 155 61 23 -2 46 58 -13 6 -23 64 
0 0 17 -53 18 0 118 39 9 -10 23 45 -9 -14 1 67 
0 0 42 -33 22 -1 99 31 11 -8 13 34 -17 -11 4 62 
0 0 10 -33 28 16 101 41 23 11 28 43 -13 24 3 49 
0 0 18 -29 12 -13 53 -3 -6 -2 2 7 -25 28 13 -2 
0 0 0 -42 20 -21 42 -17 3 2 -13 -11 -24 19 22 -22 
0 0 2 -41 9 -23 31 -15 2 -15 -20 -13 -48 -5 -18 -26 
0 0 -24 -59 -8 -16 30 -5 3 -16 -6 -5 -37 -8 -24 -30 
0 0 22 -36 -6 -8 43 -1 7 -9 10 -5 -9 -5 -7 -18 
0 0 42 -16 34 55 99 54 52 36 48 55 42 32 13 51 
0 0 54 -7 30 62 88 48 40 42 44 71 39 39 2 64 
0 0 17 -20 19 36 64 17 23 49 27 44 26 63 25 43 
0 0 29 -7 28 23 57 -1 15 45 24 27 18 76 45 34 
0 0 10 -18 36 27 65 3 20 30 24 31 27 43 28 38 
0 0 -6 -38 22 7 50 -12 18 13 6 11 21 -1 -8 19 
0 0 -6 -42 17 -18 35 -29 15 21 -6 -20 -1 13 -2 -2 
0 0 1 -34 24 -24 43 -31 15 24 4 -27 -19 35 19 -14 
0 0 14 -23 39 -9 76 -17 34 4 32 -9 -12 24 20 5 
0 0 7 -24 59 20 102 5 59 7 62 18 6 18 22 51 
0 0 32 -13 65 24 96 10 59 24 61 31 0 44 26 72 
0 0 46 -1 78 42 115 38 73 52 71 69 21 82 33 86 
0 0 88 25 90 72 142 60 86 51 91 102 48 66 27 106 
0 0 52 14 99 107 160 89 108 62 102 126 68 44 39 131 
0 0 44 14 74 81 119 69 84 56 68 97 39 46 38 98 
0 0 35 3 64 63 100 51 75 62 52 75 35 69 41 63 
0 0 64 6 57 45 88 27 55 45 34 53 33 62 34 31 
0 0 35 -22 53 44 86 27 54 60 29 41 43 72 51 25 
0 0 39 -19 32 26 61 6 37 51 33 15 25 55 39 18 
0 0 25 -20 36 30 70 10 52 40 46 28 34 39 32 27 
0 0 26 -21 29 5 56 -10 39 31 22 20 19 41 30 11 
0 0 -12 -28 46 13 69 -4 50 69 28 20 15 72 62 30 
0 0 4 -10 72 42 89 13 74 78 48 33 21 77 83 61 
0 0 1 -17 57 33 75 -1 54 54 33 20 22 57 65 43 
0 0 -8 -33 29 -2 50 -28 26 46 21 -9 9 43 31 14 
0 0 -7 -32 47 -4 66 -25 50 51 41 -9 5 52 47 28 
0 0 -10 -42 53 -9 63 -39 51 22 41 -20 -5 33 66 26 
0 0 6 -44 32 -21 45 -52 31 0 31 -34 -7 21 32 14 
0 0 16 -31 54 15 73 -9 58 43 51 7 29 58 25 42 
0 0 36 -26 65 22 76 -11 59 50 33 13 23 63 58 40 
0 0 14 -43 50 6 64 -26 53 26 21 -6 2 33 57 32 
0 0 43 -16 47 -2 65 -21 64 22 37 -4 2 34 15 36 
0 0 22 -16 69 17 83 -1 79 52 47 16 24 51 29 39 
0 0 22 -24 46 2 50 -29 43 20 19 -10 6 14 42 13 
0 0 3 -38 29 5 38 -24 46 14 22 -8 11 19 31 17 
0 0 37 -14 35 8 42 -22 48 29 30 1 8 38 15 16 
0 0 27 -19 53 31 59 -8 58 51 35 21 27 53 43 27 
0 0 30 -25 29 17 31 -18 34 33 17 11 22 39 36 27 
0 0 8 -32 17 21 30 -9 29 37 18 14 14 45 24 30 
0 0 34 -13 25 21 38 -17 24 30 23 5 5 51 31 27 
0 0 12 -20 46 32 61 -9 45 44 33 8 35 69 60 38 
0 0 -4 -28 50 35 67 -1 56 64 36 13 45 65 51 35 
0 0 -9 -31 48 24 65 -1 55 69 33 1 26 57 50 19 
0 0 1 -43 35 -17 50 -33 43 38 21 -44 -1 36 46 -7 
0 0 -5 -65 31 -33 58 -50 53 10 23 -61 -7 4 21 -3 
0 0 -28 -67 45 -7 90 -26 78 14 50 -31 8 -6 13 28 
0 0 2 -45 50 -3 99 -17 78 19 54 -25 8 6 25 34 
0 0 22 -49 56 -5 99 -17 77 35 50 -28 13 22 34 27 
0 0 30 -52 50 -8 88 -26 67 32 41 -32 8 20 29 21 
0 0 -14 -66 40 -5 83 -23 63 25 33 -30 1 13 25 17 
0 0 16 -56 18 -37 49 -52 37 -7 4 -56 -24 -7 0 -10 
0 0 25 -56 35 -27 49 -42 48 1 11 -37 -14 -1 12 11 
0 0 42 -34 44 -16 46 -35 49 6 16 -21 -14 13 44 32 
0 0 10 -48 37 -15 40 -38 42 16 7 -24 -7 33 60 22 
0 0 32 -40 19 -25 24 -51 20 12 -9 -32 -7 26 21 1 
0 0 38 -22 33 26 49 10 42 48 14 22 29 41 11 41 
0 0 57 -2 37 44 57 35 47 48 24 47 34 35 20 68 
0 0 11 -14 36 34 65 16 49 23 20 37 27 24 33 63 
0 0 15 -5 21 20 47 -6 29 6 9 23 6 27 23 44 
0 0 23 0 31 35 53 14 38 37 26 39 14 53 34 66 
0 0 26 -5 43 37 65 18 56 44 35 41 21 39 33 80 
0 0 -11 -18 36 26 49 0 48 27 15 17 7 38 37 57 
0 0 -17 -21 20 15 22 -12 26 22 7 1 -8 50 40 36 
0 0 22 -7 30 23 48 -4 43 32 36 11 3 50 42 48 
0 0 10 -10 41 40 79 19 61 39 55 32 21 53 45 56 
0 0 9 -22 22 33 56 16 35 31 34 25 14 44 16 35 
0 0 25 -37 21 24 57 13 40 41 26 8 24 30 9 33 
0 0 53 -36 32 1 58 -5 53 29 18 -25 19 21 36 18 
0 0 0 -55 42 9 54 4 60 31 19 -23 25 33 51 4 
0 0 17 -34 30 17 39 4 38 19 14 -17 24 27 17 3 
0 0 25 -29 27 18 46 3 30 15 15 -7 26 16 25 22 
0 0 38 -30 16 -8 27 -22 10 6 1 -20 6 0 27 10 
0 0 -1 -53 29 15 49 0 41 42 18 -2 27 39 14 24 
0 0 2 -47 28 13 58 -2 46 35 14 -3 13 51 -3 33 
0 0 -6 -45 26 7 54 -3 41 21 10 6 -6 31 18 38 
0 0 28 -22 31 13 53 1 43 18 25 20 5 23 29 40 
0 0 6 -24 51 43 86 32 72 23 53 47 40 39 33 66 
0 0 10 -22 44 40 76 29 63 -1 44 44 18 10 21 59 
0 0 16 -16 37 39 57 24 57 6 31 38 5 10 26 51 
0 0 17 -15 27 22 44 8 45 17 26 25 15 32 31 50 
0 0 -14 -33 22 -1 48 -5 42 13 23 10 19 29 37 47 
0 0 -26 -43 28 -4 55 -6 55 9 25 -1 12 18 39 35 
0 0 -4 -41 23 -9 52 -20 52 -1 17 -23 3 19 36 12 
0 0 -12 -54 20 -13 49 -30 46 5 15 -34 9 24 41 -4 
0 0 -1 -56 23 -19 42 -32 45 16 16 -42 7 33 43 -1 
0 0 -7 -59 33 -15 51 -23 60 25 28 -32 8 39 40 25 
0 0 32 -42 30 -33 53 -42 56 -11 29 -39 -16 11 26 29 
0 0 16 -53 32 -24 67 -34 67 -12 33 -32 -13 11 29 35 
0 0 20 -48 14 -26 44 -44 49 -6 8 -40 -12 21 22 14 
0 0 0 -51 23 -9 40 -28 60 13 7 -33 9 25 32 -3 
0 0 19 -41 26 -14 23 -24 57 -1 3 -55 13 3 26 -30 
0 0 -2 -65 27 -7 17 -18 57 11 -2 -59 21 27 38 -27 
0 0 16 -64 22 -23 6 -35 43 10 -9 -54 2 36 41 -23 
0 0 0 -61 25 -27 12 -32 44 7 -4 -40 2 14 42 -20 
0 0 16 -46 17 -28 1 -34 34 -4 -11 -48 -1 9 27 -23 
0 0 2 -47 31 1 26 -9 52 22 11 -20 11 50 44 11 
0 0 2 -37 25 4 40 3 46 17 22 0 9 34 39 28 
0 0 -11 -29 16 -4 37 3 36 -8 15 -6 9 12 25 19 
0 0 5 -29 19 -7 35 -3 32 -18 17 -18 0 20 29 11 
0 0 3 -40 15 1 41 -3 36 -15 23 -17 -5 13 33 10 
0 0 -30 -50 6 7 34 2 33 -10 17 -17 2 -3 20 0 
0 0 -11 -48 11 4 34 1 26 -4 16 -26 6 23 23 -7 
0 0 14 -44 35 12 53 6 42 7 35 -17 15 44 37 7 
0 0 42 -30 42 -1 48 -8 51 -6 38 -27 6 26 25 17 
0 0 12 -46 43 -8 44 -14 54 -3 41 -27 6 27 27 25 
0 0 32 -41 26 -22 25 -34 28 -21 20 -37 -16 10 21 -1 
0 0 18 -45 27 -15 23 -24 36 -31 10 -35 -22 -8 25 -12 
0 0 20 -47 15 -33 -1 -35 20 -45 -11 -52 -25 -13 11 -23 
0 0 -9 -65 13 -14 10 -11 24 -6 -6 -28 13 22 4 -17 
0 0 11 -45 10 -5 11 -5 25 8 0 -19 17 22 1 -25 
0 0 14 -46 20 4 21 -2 36 7 14 -24 10 13 24 -13 
0 0 42 -43 21 -5 21 -13 28 -10 18 -31 -3 -2 -1 1 
0 0 -4 -53 31 11 42 14 41 -1 36 -2 15 10 -21 22 
0 0 -9 -48 19 3 28 8 28 -10 33 -12 -1 15 -11 9 
0 0 -6 -53 15 -7 13 -3 20 -2 20 -31 -17 14 22 0 
0 0 -7 -50 15 -11 3 -2 19 5 9 -35 -8 4 23 -11 
0 0 -35 -44 25 5 13 15 37 18 14 -15 23 28 14 -12 
0 0 -19 -38 31 14 19 18 47 18 20 -3 26 37 16 -12 
0 0 11 -31 34 10 23 9 46 7 24 -2 18 16 37 -8 
0 0 -3 -29 32 18 33 20 35 19 39 6 31 22 42 11 
0 0 13 -24 17 18 36 23 23 29 41 3 25 43 20 28 
0 0 24 -37 10 7 28 6 20 13 26 -2 2 26 12 27 
0 0 42 -36 4 -17 4 -23 1 -24 8 -19 -22 6 9 15 
0 0 12 -37 21 -1 24 0 19 -3 30 1 -1 40 25 39 
0 0 31 -32 25 -5 29 -2 24 -15 35 -2 -7 22 26 32 
0 0 5 -60 21 -22 18 -21 15 -33 20 -24 -17 -22 20 -3 
0 0 15 -52 4 -35 4 -36 -5 -35 6 -48 -22 -26 1 -23 
0 0 10 -47 22 4 43 5 26 -1 31 -14 13 17 16 6 
0 0 30 -40 26 -2 32 -3 21 2 30 -17 10 18 19 -8 
0 0 6 -55 16 -9 18 -10 11 21 20 -34 10 28 25 -20 
0 0 34 -42 7 -5 28 -1 5 21 16 -30 13 34 19 -5 
0 0 9 -43 24 15 63 37 27 31 33 12 33 38 22 31 
0 0 -6 -37 17 4 52 29 26 34 25 16 24 23 10 27 
0 0 -14 -36 7 -5 42 6 29 30 15 -1 8 24 16 12 
0 0 6 -34 4 -14 37 -7 22 11 12 -14 -2 21 18 1 
0 0 -10 -37 7 3 44 12 20 14 22 -4 8 23 8 12 
0 0 -29 -42 4 21 44 31 20 18 25 2 9 23 0 19 
0 0 -12 -42 -3 7 22 22 6 5 8 -4 -4 20 1 2 
0 0 -12 -48 -4 -8 5 5 -5 5 0 -10 -3 17 4 -14 
0 0 -3 -48 -5 -21 0 -17 -12 2 -5 -32 -1 19 4 -23 
0 0 -11 -58 7 -3 11 -4 4 9 6 -25 11 33 15 -8 
0 0 15 -43 7 -4 -1 -5 1 -5 3 -17 1 18 8 -2 
0 0 -3 -48 2 -12 -1 -8 1 -6 5 -18 1 -4 -4 -8 
0 0 16 -48 -15 -33 -14 -28 -18 -26 -8 -42 -25 -24 -25 -31 
0 0 -6 -57 -11 -27 -12 -22 -7 -18 -8 -28 -31 -14 -15 -24 
0 0 13 -31 -4 -36 -12 -29 1 -11 -6 -28 -25 -10 -2 -14 
0 0 11 -37 8 -20 13 -18 12 2 15 -23 -5 6 16 8 
0 0 25 -43 -9 -22 6 -34 -14 -23 14 -32 -33 6 2 5 
0 0 -7 -47 0 -8 24 -14 2 -10 24 -6 -22 21 4 23 
0 0 9 -28 7 -12 23 -12 2 -8 20 0 -13 18 9 28 
0 0 -6 -38 -3 -19 16 -32 -7 -20 12 -18 -28 17 9 18 
0 0 -3 -31 -16 -27 7 -43 -14 -31 11 -28 -32 8 -18 6 
0 0 -9 -19 -2 -4 23 -9 3 3 22 5 6 29 -20 29 
0 0 -2 -18 -3 -5 18 -14 -4 20 13 7 5 40 -9 31 
0 0 -4 -27 -10 -18 11 -33 -14 11 3 -16 -12 27 -2 19 
0 0 -15 -33 -8 -19 8 -29 -15 1 7 -13 -13 15 -5 27 
0 0 -13 -38 -21 -36 -10 -42 -24 -25 -7 -22 -29 10 -18 16 
0 0 -27 -53 -34 -51 -17 -63 -31 -44 -27 -44 -38 -7 -21 -13 
0 0 -8 -47 -33 -56 -24 -78 -41 -53 -39 -60 -45 -28 -16 -29 
0 0 -11 -49 -6 -30 -11 -49 -18 -26 -23 -41 -23 -10 8 -10 
0 0 14 -37 -4 -28 -9 -34 -13 -23 -17 -40 -22 -1 7 -6 
0 0 -2 -42 -10 -27 -4 -30 -14 -23 -11 -33 -32 -1 -4 3 
0 0 28 -25 -11 -26 -13 -41 -22 -33 -11 -32 -43 -3 -14 5 
0 0 14 -26 13 15 16 3 2 -5 13 6 0 21 11 27 
0 0 23 -22 3 12 15 10 -16 -3 8 16 4 21 2 25 
0 0 23 -34 -2 5 14 3 -16 -11 5 17 -5 14 -11 32 
0 0 55 -20 1 -6 7 -19 -21 -31 1 3 -23 3 -5 28 
0 0 8 -26 7 7 22 -9 -16 -18 8 14 -12 24 26 34 
0 0 10 -17 2 12 28 0 -15 -16 11 22 -6 28 16 40 
0 0 27 -5 24 36 52 21 13 3 32 40 15 31 16 66 
0 0 32 -1 27 19 47 7 11 4 32 22 3 18 6 58 
0 0 -15 -36 3 -19 29 -22 -5 -9 14 -13 -21 8 -12 28 
0 0 -25 -53 -11 -24 24 -33 -10 -14 10 -28 -25 4 -12 12 
0 0 -9 -36 3 -4 31 -22 0 1 19 -20 -9 11 9 21 
0 0 -18 -34 6 -3 20 -19 -1 -1 20 -19 1 5 4 19 
0 0 -9 -47 -2 -11 11 -25 -9 -13 12 -29 -11 4 4 9 
0 0 -5 -52 13 4 33 -5 12 11 18 -13 -10 25 31 24 
0 0 20 -36 7 -11 22 -15 11 -1 7 -16 -21 11 7 17 
0 0 1 -47 -2 -15 7 -21 -1 -11 2 -17 -14 0 -23 1 
0 0 30 -35 3 -7 8 -15 -6 -3 8 -18 -10 15 -15 7 
0 0 15 -44 24 13 41 12 22 21 31 -2 5 32 16 38 
0 0 22 -36 1 -8 19 -12 -1 -5 14 -24 -12 8 1 14 
0 0 7 -40 -14 -8 -1 -14 -19 -4 -3 -27 -9 14 -9 -2 
0 0 26 -34 -17 -8 -4 -14 -25 -9 -10 -24 -8 19 -16 4 
0 0 6 -50 2 17 28 9 8 13 19 4 12 30 -2 30 
0 0 27 -37 2 9 15 7 3 21 28 2 2 25 -2 22 
0 0 -4 -41 2 0 12 8 3 15 23 -6 0 11 -2 23 
0 0 -9 -37 3 -2 26 -2 8 -5 14 -3 -2 -8 -12 33 
0 0 -12 -32 22 30 52 19 28 22 30 31 20 29 5 53 
0 0 2 -22 16 29 43 27 15 30 38 34 24 40 12 44 
0 0 -9 -21 6 17 41 21 7 18 31 22 22 23 9 38 
0 0 -4 -23 15 27 44 24 15 18 28 30 17 30 13 48 
0 0 2 -27 16 28 37 20 11 19 21 31 2 33 10 45 
0 0 -14 -32 9 15 35 7 6 17 17 19 1 13 -13 38 
0 0 17 -14 21 17 41 14 12 18 24 18 19 25 -3 45 
0 0 28 -6 40 51 57 49 32 35 42 47 42 60 40 64 
0 0 42 -1 21 40 39 30 16 18 30 42 17 38 26 56 
0 0 27 -12 15 27 30 17 12 13 29 36 4 23 7 51 
0 0 59 7 19 30 23 23 5 11 29 40 6 31 22 42 
0 0 21 -2 34 59 38 54 18 37 32 63 29 52 46 57 
0 0 22 -6 27 39 31 38 8 28 26 47 10 47 25 54 
0 0 34 -7 37 42 56 38 25 44 45 51 22 61 37 60 
0 0 64 11 36 48 63 32 25 49 47 50 25 62 39 56 
0 0 25 -12 32 54 66 43 30 50 48 59 31 67 27 66 
0 0 31 -14 23 32 47 30 14 34 35 51 22 50 21 62 
0 0 13 -13 30 27 51 20 11 29 29 45 14 40 40 54 
0 0 20 -17 19 6 37 -6 -2 -2 21 16 -14 22 19 29 
0 0 0 -32 17 6 30 1 8 2 24 11 -5 24 19 28 
0 0 -6 -17 23 23 26 21 8 19 26 22 10 19 35 33 
0 0 -2 3 25 34 38 30 6 21 35 30 12 24 36 35 
0 0 10 -1 22 34 43 23 6 24 37 28 13 40 25 35 
0 0 17 -7 27 43 41 29 8 41 32 36 23 53 29 44 
0 0 2 -1 45 70 68 62 30 56 64 69 47 47 33 70 
0 0 25 6 37 60 70 58 30 43 75 66 42 37 17 64 
0 0 17 -13 13 41 38 36 7 48 41 43 26 59 23 36 
0 0 37 -7 2 33 16 20 -18 42 18 33 15 63 28 26 
0 0 25 -14 26 50 48 35 9 41 48 51 31 48 33 53 
0 0 44 -13 19 26 44 14 4 21 39 27 17 27 20 34 
0 0 24 -20 12 31 40 25 6 35 27 26 23 41 19 29 
0 0 58 5 27 55 53 49 29 39 46 48 36 44 9 51 
0 0 52 0 59 82 90 85 70 57 83 80 61 60 32 80 
0 0 50 5 42 61 76 69 37 41 65 62 39 45 35 68 
0 0 23 -4 34 66 71 61 27 37 56 64 31 41 33 76 
0 0 41 3 45 71 73 61 46 35 68 77 35 44 32 87 
0 0 6 -1 47 68 80 74 52 36 77 77 37 38 36 89 
0 0 11 0 23 41 53 44 20 7 50 45 4 14 30 62 
0 0 23 2 35 52 56 46 36 18 52 52 14 39 54 62 
0 0 23 11 52 72 70 74 49 39 75 76 38 42 44 77 
0 0 11 4 34 60 69 62 32 23 71 71 30 13 11 75 
0 0 11 -14 20 38 56 34 24 13 54 53 16 9 7 58 
0 0 22 -17 26 25 44 27 20 21 42 35 8 17 22 41 
0 0 4 -30 27 18 42 28 16 24 39 27 17 16 28 32 
0 0 29 -30 15 4 30 12 15 10 28 13 13 9 24 19 
0 0 32 -26 27 28 40 34 31 27 35 29 19 12 33 31 
0 0 50 -15 22 32 44 39 22 21 37 28 12 6 25 40 
0 0 10 -38 15 27 50 33 25 19 36 18 16 27 34 41 
0 0 16 -35 6 -2 18 1 3 11 14 -11 -10 32 46 7 
0 0 12 -27 22 14 24 21 7 35 26 9 0 29 43 14 
0 0 37 -10 12 24 29 36 11 31 38 23 12 20 -11 27 
0 0 17 -36 9 25 28 36 29 34 40 23 15 35 -14 26 
0 0 30 -42 11 0 9 4 18 18 27 -2 -13 14 1 3 
0 0 15 -40 29 5 28 13 37 8 43 3 -3 -14 -4 13 
0 0 30 -25 24 -4 25 10 30 -14 40 -5 -6 -27 -22 11 
0 0 -3 -40 15 -4 13 8 17 -2 18 -13 1 2 -3 4 
0 0 -3 -46 7 -12 7 -4 9 9 6 -21 3 6 -2 -6 
0 0 -2 -44 5 -22 20 -9 15 -4 19 -22 -14 -12 -14 -2 
0 0 3 -37 4 -29 21 -14 8 -19 26 -31 -33 -26 -18 1 
0 0 6 -33 10 -23 19 -16 13 -12 27 -30 -23 -11 -4 2 
0 0 -8 -37 15 -20 22 -20 23 -7 28 -18 -17 9 7 2 
0 0 -4 -40 1 -32 10 -27 -2 -27 11 -24 -41 0 -7 -4 
0 0 -11 -54 -9 -34 -3 -13 -8 -28 2 -28 -38 -14 -13 -10 
0 0 22 -38 -2 -21 1 -6 6 -6 7 -20 -14 -4 1 -4 
0 0 10 -29 16 27 41 29 24 39 34 23 19 25 -1 31 
0 0 36 -15 4 28 42 27 3 16 38 24 2 -5 -45 33 
0 0 35 -26 11 18 44 11 17 -6 44 21 -3 -26 -28 35 
0 0 54 -25 17 -7 25 -21 17 -21 27 4 -10 -18 -1 21 
0 0 32 -45 21 2 29 -4 20 -3 29 8 -1 -1 -8 16 
0 0 55 -35 9 -5 27 -11 8 -13 29 -6 -7 -28 -37 11 
0 0 35 -41 11 -20 23 -29 8 -12 20 -18 4 -27 -15 15 
0 0 26 -40 -1 -47 -11 -46 -15 -25 -3 -34 -23 -8 -5 -1 
0 0 -11 -45 -4 -24 0 -20 -5 -12 -4 -15 -24 8 -11 2 
0 0 2 -27 -7 -4 12 -10 0 -4 -1 -9 -5 -20 -30 4 
0 0 -14 -24 7 9 25 14 14 15 23 3 12 -11 -6 17 
0 0 -20 -32 0 -1 11 10 4 17 20 1 -6 18 5 11 
0 0 -34 -52 -24 -23 -20 -29 -22 4 -17 -32 -26 14 -9 -17 
0 0 -44 -63 -32 -35 -42 -49 -37 -3 -29 -59 -30 -13 -15 -39 
0 0 -27 -57 -18 -28 -31 -40 -26 5 -10 -54 -21 -8 -16 -35 
0 0 -18 -53 -9 -29 -15 -43 -11 10 -6 -46 -17 7 -22 -27 
0 0 7 -44 -9 -35 -15 -52 -12 9 -8 -54 -20 9 -11 -25 
0 0 11 -42 6 -2 11 -12 10 33 19 -23 11 15 2 7 
0 0 46 -21 15 9 31 8 18 20 30 -1 9 9 -12 28 
0 0 22 -28 15 0 27 4 10 5 29 -1 -10 10 0 23 
0 0 26 -35 -9 -23 -12 -24 -28 -8 8 -30 -19 6 1 -8 
0 0 5 -49 -4 -2 0 -10 -21 13 13 -22 6 19 -5 -4 
0 0 18 -38 -11 -15 -8 -20 -25 -13 5 -34 -22 -8 -24 -18 
0 0 -4 -55 -22 -27 -21 -25 -20 -24 3 -49 -36 -30 -18 -33 
0 0 10 -48 -20 -23 -23 -28 -24 -13 3 -46 -24 -20 -16 -34 
0 0 2 -43 11 21 16 9 7 31 21 -1 14 22 0 -1 
0 0 29 -22 8 19 11 13 14 29 23 5 10 19 -4 7 
0 0 -2 -31 -1 6 7 9 10 23 21 5 7 19 5 12 
0 0 -4 -35 -3 -4 2 -9 -10 17 6 -2 -4 9 6 -2 
0 0 -5 -31 6 3 3 -6 -4 20 4 -8 5 10 2 -4 
0 0 3 -12 7 4 -2 3 7 21 13 -9 19 25 -6 8 
0 0 -10 -11 6 8 -1 4 16 29 10 -1 14 35 7 12 
0 0 -17 -23 1 4 -9 -5 4 19 -3 -3 -12 1 9 -4 
0 0 2 -15 -2 -3 -12 -4 -16 6 0 0 -14 -15 -1 4 
0 0 13 -3 17 24 16 27 4 32 29 36 18 23 14 39 
0 0 33 0 20 35 25 34 16 38 34 39 22 28 20 41 
0 0 -5 -31 -2 19 10 21 1 19 16 13 11 -4 8 20 
0 0 7 -32 -22 -2 -6 0 -25 3 1 -7 -8 -17 -15 6 
0 0 13 -26 -5 23 18 25 -5 34 23 20 10 13 -15 27 
0 0 44 -11 0 14 17 15 -9 32 30 15 12 19 -13 27 
0 0 17 -36 6 8 19 6 -6 22 34 4 12 16 2 19 
0 0 31 -36 -6 -5 5 -13 -15 -3 19 -16 -5 -13 -16 -5 
0 0 27 -31 -1 10 21 7 1 20 31 0 18 -12 -19 8 
