# H:M:S.f Gyro(x) Gyro(y) F3 FC5 AF3 F7 T7 P7 O1 O2 P8 T8 F8 AF4 FC6 F4
14:35:23.076785 2045 2037 2132.5599 2132.82 2131.5195 2128.9185 2130.219 2131.5195 2130.9993 2131.2594 2133.3402 2135.421 2128.6584 2130.9993 2157.2694 2507.364 
14:35:23.077621 2043 2037 2130.219 2130.9993 2130.7392 2130.7392 2131.2594 2131.7796 2131.2594 2131.7796 2134.1205 2134.9008 2131.7796 2130.7392 2158.83 2506.0635 
14:35:23.078696 2046 2038 2132.82 2129.6988 2131.2594 2129.9589 2129.6988 2132.82 2129.1786 2131.5195 2131.7796 2136.2013 2134.6407 2134.1205 2159.3502 2508.1443 
14:35:23.079696 2046 2038 2130.9993 2130.4791 2132.5599 2131.5195 2130.4791 2128.9185 2129.4387 2131.7796 2132.0397 2136.9816 2132.5599 2133.6003 2157.5295 2503.2024 
14:35:23.080633 2046 2039 2131.7796 2130.219 2129.9589 2130.4791 2130.7392 2127.0978 2125.017 2130.4791 2132.2998 2136.2013 2134.1205 2135.9412 2161.9512 2506.3236 
14:35:23.081672 2046 2038 2129.9589 2130.9993 2130.7392 2133.3402 2132.5599 2129.6988 2128.6584 2131.7796 2131.2594 2135.1609 2133.8604 2133.3402 2161.9512 2502.9423 
14:35:23.082649 2045 2037 2130.9993 2131.7796 2132.2998 2132.0397 2129.9589 2132.5599 2128.6584 2132.82 2132.5599 2135.421 2131.2594 2135.421 2161.1709 2507.1039 
14:35:23.083559 2043 2037 2128.1382 2132.0397 2133.0801 2133.3402 2132.2998 2134.1205 2133.8604 2131.7796 2134.9008 2135.1609 2132.0397 2135.6811 2160.6507 2502.4221 
14:35:23.084603 2044 2036 2131.2594 2130.4791 2131.5195 2131.5195 2134.3806 2135.1609 2134.1205 2130.219 2132.82 2134.6407 2134.3806 2134.1205 2161.6911 2503.9827 
14:35:23.091381 2048 2038 2132.0397 2130.7392 2132.2998 2131.7796 2134.3806 2132.0397 2134.6407 2131.7796 2130.9993 2134.3806 2133.3402 2131.7796 2159.8704 2501.1216 
14:35:23.099377 2047 2040 2133.6003 2131.5195 2132.2998 2129.9589 2130.9993 2128.3983 2130.219 2133.0801 2131.5195 2135.421 2135.9412 2137.7619 2160.9108 2505.0231 
14:35:23.107420 2045 2040 2134.3806 2132.2998 2132.5599 2129.4387 2132.5599 2129.6988 2129.9589 2131.7796 2132.5599 2135.421 2135.6811 2139.3225 2161.6911 2508.4044 
14:35:23.115374 2044 2039 2134.9008 2132.5599 2131.7796 2128.6584 2131.5195 2130.9993 2126.5776 2129.6988 2132.5599 2134.6407 2131.7796 2137.2417 2162.7315 2512.0458 
14:35:23.123407 2043 2037 2132.0397 2134.1205 2130.219 2130.7392 2130.4791 2133.6003 2128.3983 2129.4387 2132.82 2134.6407 2131.7796 2135.1609 2161.9512 2508.9246 
14:35:23.131438 2043 2037 2131.2594 2133.8604 2130.9993 2131.2594 2130.219 2135.1609 2130.9993 2131.5195 2134.3806 2134.9008 2133.3402 2134.9008 2160.9108 2509.1847 
14:35:23.139460 2045 2037 2132.2998 2132.0397 2131.5195 2130.219 2129.9589 2131.7796 2130.219 2132.0397 2134.6407 2135.1609 2130.219 2132.2998 2160.3906 2510.7453 
14:35:23.147462 2047 2039 2130.4791 2131.5195 2132.2998 2132.2998 2131.7796 2126.0574 2129.1786 2131.5195 2132.82 2135.6811 2129.9589 2131.2594 2158.0497 2505.0231 
14:35:23.154464 2046 2038 2129.6988 2132.82 2132.0397 2132.5599 2132.82 2126.8377 2128.9185 2130.219 2131.2594 2135.1609 2131.7796 2132.0397 2157.2694 2502.162 
14:35:23.162467 2045 2038 2128.6584 2130.7392 2133.6003 2133.6003 2132.82 2129.1786 2132.0397 2130.4791 2132.0397 2134.9008 2133.3402 2132.5599 2158.5699 2497.7403 
14:35:23.170386 2044 2038 2131.2594 2128.9185 2133.3402 2131.2594 2130.219 2131.7796 2130.219 2131.5195 2132.0397 2135.421 2134.3806 2132.2998 2158.5699 2499.0408 
14:35:23.178403 2043 2036 2130.219 2130.7392 2132.82 2131.2594 2131.5195 2135.6811 2132.0397 2134.1205 2132.0397 2135.6811 2133.3402 2134.3806 2157.2694 2499.8211 
14:35:23.186400 2044 2037 2133.6003 2130.9993 2131.5195 2128.3983 2131.2594 2135.1609 2129.9589 2133.0801 2132.5599 2135.9412 2133.8604 2140.623 2161.9512 2506.8438 
14:35:23.194400 2046 2038 2133.6003 2129.6988 2132.2998 2130.219 2132.82 2128.3983 2133.0801 2132.82 2134.6407 2135.421 2134.9008 2138.5422 2162.7315 2503.7226 
14:35:23.202398 2047 2038 2135.421 2128.6584 2131.7796 2129.4387 2130.7392 2127.618 2130.4791 2132.5599 2134.3806 2134.9008 2135.1609 2138.022 2162.9916 2511.0054 
14:35:23.210560 2048 2038 2132.0397 2129.9589 2132.0397 2132.0397 2132.2998 2130.9993 2132.82 2133.3402 2132.2998 2134.9008 2134.3806 2138.2821 2161.6911 2506.0635 
14:35:23.217563 2046 2036 2133.8604 2130.7392 2131.5195 2130.7392 2133.6003 2133.3402 2130.7392 2132.0397 2133.0801 2135.1609 2135.6811 2140.623 2163.7719 2506.3236 
14:35:23.225560 2044 2036 2132.0397 2131.7796 2131.7796 2131.5195 2135.421 2135.1609 2132.82 2132.0397 2134.3806 2134.1205 2132.2998 2135.6811 2161.6911 2505.0231 
14:35:23.233562 2043 2037 2131.5195 2132.82 2131.2594 2130.4791 2132.0397 2134.6407 2129.1786 2132.0397 2132.5599 2133.8604 2129.1786 2133.6003 2160.9108 2508.6645 
14:35:23.241561 2044 2037 2131.5195 2134.1205 2132.5599 2131.2594 2132.2998 2132.0397 2130.219 2132.82 2131.5195 2135.6811 2129.1786 2132.2998 2160.6507 2505.5433 
14:35:23.249560 2046 2039 2133.8604 2132.0397 2131.7796 2129.4387 2131.5195 2128.6584 2128.9185 2132.0397 2133.8604 2136.4614 2130.7392 2133.6003 2161.431 2507.364 
14:35:23.257560 2046 2039 2131.7796 2130.4791 2130.7392 2128.3983 2130.7392 2124.7569 2126.5776 2130.219 2134.1205 2133.8604 2129.4387 2131.7796 2159.6103 2506.8438 
14:35:23.265621 2044 2038 2130.7392 2130.7392 2131.5195 2128.1382 2130.219 2125.5372 2125.017 2130.9993 2132.0397 2133.6003 2130.9993 2132.0397 2158.83 2505.8034 
14:35:23.273560 2043 2037 2129.9589 2132.0397 2132.82 2130.4791 2131.5195 2133.6003 2128.3983 2132.2998 2132.2998 2136.4614 2132.0397 2132.82 2159.0901 2505.0231 
14:35:23.281558 2042 2036 2129.4387 2132.0397 2132.82 2132.82 2131.2594 2137.2417 2127.3579 2132.5599 2134.6407 2136.7215 2131.2594 2133.6003 2158.5699 2503.4625 
14:35:23.288609 2043 2037 2130.4791 2131.7796 2132.82 2131.5195 2130.219 2133.3402 2125.5372 2131.2594 2134.3806 2134.9008 2131.2594 2133.6003 2158.3098 2501.6418 
14:35:23.296582 2045 2039 2129.1786 2131.2594 2133.0801 2132.82 2130.9993 2127.3579 2129.9589 2131.5195 2132.0397 2134.1205 2132.5599 2133.8604 2158.0497 2499.8211 
14:35:23.304371 2046 2039 2130.7392 2131.2594 2131.7796 2132.5599 2130.9993 2124.4968 2130.4791 2131.7796 2130.7392 2133.6003 2133.3402 2133.3402 2158.3098 2504.763 
14:35:23.312375 2045 2038 2130.7392 2130.9993 2133.3402 2132.0397 2130.9993 2125.7973 2131.2594 2132.0397 2132.2998 2134.1205 2133.8604 2133.0801 2158.83 2503.2024 
14:35:23.320375 2045 2038 2133.3402 2130.4791 2133.3402 2129.4387 2129.1786 2133.3402 2131.2594 2131.5195 2133.6003 2134.9008 2134.1205 2139.0624 2161.6911 2505.5433 
14:35:23.328378 2043 2037 2132.0397 2130.4791 2133.0801 2131.2594 2130.7392 2138.5422 2133.3402 2133.0801 2134.3806 2134.3806 2135.421 2140.8831 2161.9512 2503.7226 
14:35:23.336377 2045 2037 2134.1205 2131.2594 2132.2998 2130.219 2131.5195 2136.9816 2129.4387 2132.0397 2133.8604 2134.6407 2136.4614 2138.5422 2162.4714 2509.965 
14:35:23.344390 2046 2037 2131.7796 2132.5599 2132.2998 2132.0397 2134.3806 2130.7392 2133.0801 2131.2594 2133.3402 2134.9008 2133.3402 2136.9816 2162.2113 2506.8438 
14:35:23.351388 2046 2040 2133.3402 2131.7796 2130.7392 2130.219 2131.7796 2125.5372 2129.9589 2131.5195 2133.3402 2134.9008 2131.2594 2141.4033 2163.7719 2510.2251 
14:35:23.359387 2047 2039 2130.9993 2133.0801 2131.7796 2130.9993 2131.2594 2124.4968 2130.4791 2131.7796 2133.3402 2134.3806 2129.9589 2135.6811 2159.6103 2506.3236 
14:35:23.367386 2043 2037 2130.4791 2133.8604 2130.7392 2130.4791 2131.5195 2130.219 2129.6988 2129.9589 2132.2998 2134.1205 2129.4387 2131.5195 2158.83 2507.6241 
14:35:23.375395 2044 2037 2128.6584 2133.0801 2130.219 2133.8604 2135.6811 2138.022 2133.0801 2131.5195 2131.2594 2134.3806 2128.6584 2129.6988 2158.0497 2501.6418 
14:35:23.383393 2043 2037 2130.9993 2132.5599 2131.5195 2133.6003 2132.0397 2137.5018 2128.1382 2132.0397 2131.5195 2134.3806 2130.4791 2131.7796 2157.7896 2502.9423 
14:35:23.391393 2044 2037 2130.219 2133.6003 2132.5599 2132.82 2128.9185 2128.6584 2127.3579 2130.4791 2132.5599 2134.1205 2130.7392 2131.5195 2157.0093 2502.9423 
14:35:23.399391 2046 2039 2131.7796 2130.9993 2131.2594 2130.9993 2128.9185 2122.1559 2125.7973 2130.219 2132.82 2135.1609 2132.5599 2134.3806 2158.5699 2504.5029 
14:35:23.407429 2048 2039 2132.82 2130.219 2132.0397 2130.9993 2129.9589 2125.017 2127.0978 2130.219 2132.0397 2135.9412 2132.2998 2134.1205 2157.5295 2501.3817 
14:35:23.415423 2048 2037 2133.0801 2131.5195 2132.82 2130.9993 2128.3983 2130.4791 2127.8781 2130.219 2132.82 2134.9008 2132.2998 2134.9008 2159.0901 2501.6418 
14:35:23.422425 2042 2036 2132.0397 2130.9993 2132.0397 2131.2594 2128.3983 2134.9008 2128.6584 2131.7796 2134.3806 2134.1205 2133.6003 2135.6811 2161.1709 2503.7226 
14:35:23.430427 2044 2037 2131.2594 2129.4387 2133.3402 2131.5195 2129.9589 2135.9412 2130.4791 2134.1205 2134.6407 2134.6407 2133.6003 2136.2013 2159.8704 2503.9827 
14:35:23.438425 2044 2038 2133.0801 2131.5195 2133.0801 2129.4387 2130.219 2133.0801 2131.7796 2132.82 2132.82 2134.9008 2133.0801 2138.022 2160.3906 2503.9827 
14:35:23.446427 2045 2038 2132.5599 2133.3402 2130.9993 2130.219 2132.5599 2127.618 2133.8604 2132.2998 2132.5599 2134.9008 2135.6811 2139.3225 2161.431 2500.8615 
14:35:23.454429 2046 2038 2133.8604 2133.0801 2129.6988 2129.6988 2133.8604 2126.8377 2130.9993 2131.7796 2133.0801 2134.3806 2135.421 2139.3225 2162.2113 2508.6645 
14:35:23.462427 2046 2038 2133.0801 2133.3402 2131.5195 2131.2594 2134.1205 2129.9589 2132.2998 2131.7796 2133.0801 2133.3402 2132.2998 2138.5422 2162.2113 2509.7049 
14:35:23.470427 2045 2037 2133.8604 2133.3402 2131.5195 2129.6988 2131.7796 2133.6003 2129.6988 2131.7796 2132.82 2134.1205 2131.5195 2138.5422 2163.7719 2511.0054 
14:35:23.478426 2044 2037 2131.5195 2133.3402 2132.5599 2132.0397 2133.6003 2135.421 2132.2998 2134.3806 2133.6003 2134.9008 2130.7392 2134.9008 2162.2113 2507.364 
14:35:23.485426 2045 2039 2133.8604 2132.82 2130.9993 2130.219 2130.9993 2134.6407 2129.1786 2134.3806 2132.5599 2134.9008 2129.1786 2133.6003 2162.2113 2512.566 
14:35:23.493426 2046 2038 2130.9993 2132.2998 2131.7796 2129.6988 2131.2594 2129.1786 2130.219 2132.2998 2132.2998 2134.9008 2129.9589 2130.4791 2159.6103 2506.5837 
14:35:23.501446 2046 2037 2131.5195 2131.5195 2133.0801 2128.6584 2130.9993 2125.5372 2127.618 2130.7392 2134.6407 2135.9412 2132.2998 2131.5195 2157.2694 2505.2832 
14:35:23.509437 2047 2038 2130.7392 2132.5599 2132.82 2131.7796 2132.5599 2127.3579 2128.6584 2133.0801 2135.6811 2135.421 2130.9993 2130.9993 2157.0093 2500.3413 
14:35:23.517429 2047 2038 2132.5599 2132.82 2131.5195 2130.219 2129.4387 2131.2594 2127.0978 2133.3402 2132.2998 2134.3806 2131.7796 2133.8604 2159.8704 2503.4625 
14:35:23.525428 2043 2037 2129.9589 2132.5599 2132.5599 2131.7796 2129.4387 2132.82 2131.2594 2131.5195 2131.5195 2135.1609 2131.7796 2133.3402 2158.0497 2501.1216 
14:35:23.533425 2044 2037 2130.9993 2131.2594 2132.0397 2132.2998 2128.3983 2131.5195 2128.3983 2132.2998 2132.82 2135.9412 2133.3402 2134.1205 2160.1305 2502.9423 
14:35:23.541547 2044 2038 2132.0397 2129.9589 2131.2594 2131.2594 2128.9185 2130.7392 2128.6584 2133.0801 2131.7796 2134.9008 2133.0801 2133.3402 2162.4714 2501.9019 
14:35:23.548721 2044 2039 2133.3402 2129.4387 2131.7796 2130.219 2129.4387 2129.1786 2131.2594 2130.7392 2131.5195 2134.6407 2133.0801 2135.421 2160.9108 2504.2428 
14:35:23.556719 2046 2040 2132.82 2131.2594 2131.7796 2130.9993 2130.7392 2129.9589 2133.0801 2130.7392 2133.6003 2135.421 2134.3806 2137.2417 2158.0497 2503.9827 
14:35:23.564720 2045 2038 2132.0397 2130.219 2132.2998 2129.6988 2132.2998 2132.5599 2131.2594 2133.8604 2134.1205 2135.421 2136.4614 2137.7619 2158.83 2503.4625 
14:35:23.572702 2046 2038 2132.82 2129.9589 2132.2998 2129.4387 2134.1205 2135.1609 2131.2594 2133.0801 2132.5599 2134.6407 2135.6811 2137.7619 2160.6507 2506.8438 
14:35:23.580703 2046 2038 2131.5195 2132.5599 2131.5195 2132.82 2133.3402 2133.0801 2132.0397 2132.2998 2131.7796 2134.3806 2134.9008 2138.5422 2160.6507 2505.5433 
14:35:23.588701 2044 2036 2132.2998 2134.9008 2129.9589 2131.7796 2131.5195 2132.0397 2129.9589 2132.5599 2131.5195 2134.3806 2133.8604 2137.2417 2160.9108 2506.8438 
14:35:23.596671 2044 2036 2131.2594 2133.6003 2131.2594 2131.7796 2132.5599 2133.0801 2131.2594 2132.2998 2131.7796 2134.1205 2130.4791 2133.8604 2160.1305 2506.8438 
14:35:23.604700 2043 2038 2132.0397 2132.0397 2131.7796 2129.9589 2130.4791 2132.82 2127.8781 2130.4791 2131.5195 2134.3806 2128.1382 2133.8604 2161.9512 2512.566 
14:35:23.612701 2045 2038 2130.219 2132.82 2133.0801 2129.9589 2130.4791 2130.4791 2129.6988 2132.2998 2132.0397 2135.6811 2129.1786 2133.8604 2161.431 2506.5837 
14:35:23.619683 2045 2038 2132.5599 2133.6003 2132.2998 2127.8781 2130.4791 2129.4387 2128.6584 2133.6003 2133.0801 2136.2013 2129.9589 2133.0801 2159.8704 2506.8438 
14:35:23.627677 2045 2040 2130.9993 2132.82 2133.0801 2129.9589 2132.5599 2128.3983 2130.7392 2132.82 2133.0801 2135.421 2132.2998 2131.2594 2159.0901 2503.9827 
14:35:23.635685 2045 2040 2132.0397 2129.9589 2132.82 2128.1382 2130.4791 2129.9589 2127.3579 2131.5195 2131.7796 2135.1609 2134.9008 2136.2013 2160.9108 2505.2832 
14:35:23.643681 2044 2037 2130.4791 2131.2594 2132.5599 2130.9993 2132.2998 2132.2998 2130.7392 2133.0801 2132.0397 2134.9008 2133.3402 2136.2013 2159.6103 2501.1216 
14:35:23.659674 2045 2038 2131.7796 2133.0801 2132.0397 2132.5599 2131.7796 2130.9993 2132.2998 2131.7796 2133.8604 2135.421 2134.3806 2136.9816 2159.6103 2503.2024 
14:35:23.667584 2046 2039 2132.2998 2132.2998 2132.82 2128.9185 2129.9589 2131.2594 2130.9993 2133.3402 2131.7796 2135.421 2130.9993 2137.2417 2161.431 2507.1039 
14:35:23.675685 2046 2038 2131.7796 2132.0397 2130.9993 2130.4791 2131.2594 2129.9589 2133.8604 2133.6003 2131.2594 2134.6407 2131.7796 2136.2013 2162.4714 2508.4044 
14:35:23.682681 2046 2038 2132.5599 2130.4791 2129.4387 2130.9993 2130.4791 2129.9589 2131.7796 2132.2998 2132.2998 2135.6811 2135.6811 2137.2417 2161.431 2506.0635 
14:35:23.690679 2043 2038 2131.5195 2130.7392 2131.2594 2130.4791 2132.0397 2135.6811 2132.2998 2132.5599 2132.0397 2135.1609 2132.2998 2135.6811 2159.8704 2501.6418 
14:35:23.698684 2043 2037 2132.82 2132.2998 2131.5195 2130.219 2131.2594 2136.7215 2130.9993 2133.6003 2131.5195 2133.3402 2132.0397 2137.7619 2162.7315 2505.0231 
14:35:23.706685 2044 2038 2133.6003 2133.6003 2130.7392 2130.7392 2130.9993 2130.9993 2130.4791 2132.2998 2132.2998 2134.6407 2135.421 2138.8023 2164.032 2507.1039 
14:35:23.714668 2046 2040 2131.5195 2133.3402 2132.5599 2130.4791 2131.2594 2125.7973 2130.7392 2131.5195 2132.5599 2136.2013 2134.3806 2137.2417 2161.6911 2506.3236 
14:35:23.722680 2047 2040 2131.5195 2133.6003 2130.7392 2129.9589 2130.7392 2126.0574 2128.6584 2131.7796 2132.82 2135.1609 2129.6988 2135.6811 2161.431 2509.1847 
14:35:23.730684 2045 2039 2130.4791 2133.3402 2131.2594 2131.7796 2129.9589 2128.6584 2130.219 2132.82 2134.3806 2134.3806 2130.219 2134.6407 2160.1305 2505.8034 
14:35:23.738684 2044 2037 2130.7392 2133.0801 2133.3402 2130.4791 2130.219 2132.82 2131.2594 2131.5195 2132.82 2135.421 2131.2594 2131.2594 2158.5699 2506.0635 
14:35:23.745684 2043 2037 2129.9589 2132.2998 2133.6003 2130.7392 2133.3402 2135.9412 2132.5599 2131.5195 2132.2998 2136.2013 2131.7796 2129.4387 2158.3098 2503.4625 
14:35:23.753680 2043 2035 2133.0801 2131.2594 2131.2594 2130.219 2130.9993 2134.3806 2126.3175 2132.0397 2133.3402 2135.9412 2134.1205 2133.8604 2159.8704 2504.763 
14:35:23.761682 2046 2039 2130.9993 2131.5195 2132.0397 2133.0801 2129.9589 2128.1382 2128.1382 2133.8604 2133.3402 2135.9412 2134.3806 2136.9816 2159.6103 2500.8615 
14:35:23.769679 2046 2039 2131.5195 2131.7796 2130.9993 2130.4791 2129.9589 2124.7569 2127.8781 2132.82 2133.0801 2135.421 2133.8604 2140.3629 2161.431 2506.0635 
14:35:23.777678 2046 2039 2130.4791 2133.0801 2131.2594 2130.7392 2132.82 2126.5776 2130.4791 2133.0801 2134.1205 2134.9008 2132.2998 2136.7215 2160.3906 2503.7226 
14:35:23.785669 2044 2038 2132.5599 2132.2998 2132.0397 2129.4387 2130.7392 2131.7796 2129.4387 2132.82 2133.0801 2135.6811 2131.2594 2135.6811 2161.1709 2508.4044 
14:35:23.793661 2043 2036 2130.7392 2130.4791 2132.5599 2131.2594 2131.2594 2135.421 2133.8604 2132.82 2132.0397 2134.6407 2130.219 2133.8604 2159.3502 2504.5029 
14:35:23.801671 2043 2037 2132.0397 2131.7796 2130.7392 2130.7392 2133.0801 2136.4614 2132.2998 2132.0397 2133.8604 2133.8604 2131.2594 2134.1205 2159.3502 2506.8438 
14:35:23.809670 2044 2038 2130.4791 2134.1205 2131.2594 2132.0397 2134.3806 2133.0801 2133.3402 2132.0397 2134.9008 2135.421 2131.5195 2132.2998 2158.83 2503.2024 
14:35:23.816747 2046 2038 2132.5599 2131.5195 2132.2998 2130.219 2129.9589 2127.0978 2130.7392 2132.0397 2133.3402 2135.421 2133.6003 2136.9816 2161.431 2505.2832 
14:35:23.824720 2046 2039 2133.0801 2130.9993 2133.0801 2129.6988 2129.9589 2124.4968 2131.5195 2132.0397 2133.8604 2134.3806 2133.0801 2139.3225 2162.4714 2506.8438 
14:35:23.832717 2044 2038 2132.82 2132.5599 2132.0397 2129.9589 2131.2594 2127.3579 2129.1786 2131.7796 2135.421 2134.6407 2131.7796 2138.5422 2162.7315 2510.7453 
14:35:23.840660 2043 2038 2130.9993 2132.82 2131.2594 2129.9589 2132.2998 2133.8604 2128.3983 2132.0397 2134.3806 2134.3806 2130.9993 2135.421 2161.1709 2508.9246 
14:35:23.848705 2042 2036 2131.5195 2131.7796 2132.0397 2129.6988 2130.7392 2136.9816 2128.6584 2132.82 2133.0801 2133.6003 2132.2998 2134.3806 2159.6103 2507.364 
14:35:23.856685 2043 2037 2131.5195 2132.2998 2132.2998 2130.4791 2130.9993 2133.6003 2128.6584 2132.0397 2133.3402 2134.9008 2131.5195 2132.5599 2159.6103 2508.6645 
14:35:23.864688 2046 2039 2129.9589 2131.5195 2133.0801 2130.9993 2131.7796 2126.5776 2130.9993 2131.7796 2133.8604 2136.2013 2131.7796 2132.82 2160.1305 2505.0231 
14:35:23.872685 2047 2039 2131.5195 2131.5195 2132.2998 2128.6584 2130.7392 2124.2367 2129.4387 2131.5195 2133.3402 2135.1609 2132.2998 2133.0801 2158.5699 2502.6822 
14:35:23.879666 2045 2039 2131.2594 2132.82 2132.0397 2130.9993 2133.0801 2126.8377 2129.9589 2131.5195 2133.8604 2134.3806 2133.3402 2132.82 2157.7896 2500.3413 
14:35:23.887667 2043 2038 2133.0801 2133.0801 2131.2594 2130.9993 2132.2998 2132.5599 2128.6584 2130.4791 2134.1205 2135.1609 2134.9008 2138.022 2161.1709 2506.5837 
14:35:23.895635 2042 2036 2131.2594 2133.0801 2132.2998 2131.7796 2130.219 2136.4614 2130.219 2132.2998 2134.3806 2136.2013 2132.82 2137.2417 2161.6911 2506.0635 
14:35:23.903662 2044 2037 2132.5599 2132.2998 2131.7796 2131.2594 2128.6584 2135.9412 2128.9185 2132.5599 2133.8604 2135.1609 2130.7392 2134.3806 2162.7315 2509.7049 
14:35:23.911667 2044 2038 2130.7392 2130.9993 2131.2594 2133.6003 2131.7796 2129.9589 2133.3402 2131.7796 2133.8604 2133.0801 2131.5195 2133.3402 2160.1305 2503.2024 
14:35:23.919668 2047 2038 2133.6003 2129.6988 2130.9993 2129.9589 2130.7392 2125.2771 2130.219 2131.2594 2134.1205 2133.3402 2132.2998 2136.7215 2159.3502 2506.5837 
14:35:23.927667 2045 2038 2132.0397 2129.9589 2132.82 2130.219 2132.5599 2127.0978 2132.0397 2133.3402 2134.1205 2133.8604 2132.0397 2135.421 2159.6103 2503.7226 
14:35:23.935665 2045 2038 2133.0801 2131.5195 2132.0397 2130.4791 2133.0801 2133.6003 2131.2594 2132.82 2134.3806 2134.1205 2134.9008 2136.9816 2162.2113 2506.0635 
14:35:23.943663 2044 2038 2130.9993 2133.3402 2131.7796 2132.82 2134.1205 2137.5018 2132.82 2132.0397 2135.421 2134.6407 2133.6003 2136.4614 2159.8704 2502.4221 
14:35:23.950668 2043 2036 2131.2594 2133.6003 2131.7796 2131.5195 2131.2594 2135.6811 2128.3983 2132.0397 2135.1609 2134.6407 2130.7392 2136.7215 2159.6103 2507.1039 
14:35:23.958665 2045 2038 2130.7392 2134.6407 2132.2998 2132.0397 2132.0397 2131.5195 2131.7796 2132.0397 2133.6003 2134.3806 2129.4387 2134.3806 2160.6507 2508.4044 
14:35:23.966668 2047 2039 2131.7796 2133.6003 2131.2594 2130.9993 2130.7392 2125.7973 2131.2594 2131.2594 2133.8604 2135.9412 2130.219 2133.0801 2160.6507 2509.965 
14:35:23.974669 2045 2039 2130.4791 2132.82 2131.2594 2131.5195 2131.5195 2124.2367 2129.6988 2132.0397 2134.3806 2135.9412 2129.6988 2130.7392 2158.5699 2505.5433 
14:35:23.982668 2046 2038 2130.9993 2131.7796 2132.2998 2130.4791 2131.5195 2129.4387 2127.618 2132.2998 2132.82 2135.421 2131.2594 2133.3402 2159.6103 2503.2024 
14:35:23.990662 2044 2036 2131.2594 2132.0397 2132.5599 2129.4387 2131.5195 2136.4614 2127.8781 2132.2998 2132.82 2135.6811 2131.5195 2132.5599 2159.8704 2503.7226 
14:35:23.998666 2043 2035 2130.7392 2131.5195 2132.2998 2131.2594 2131.5195 2136.9816 2128.1382 2134.1205 2134.3806 2135.1609 2134.6407 2134.6407 2160.1305 2504.5029 
14:35:24.006669 2042 2035 2131.2594 2131.5195 2131.5195 2130.9993 2130.7392 2132.2998 2126.5776 2133.8604 2133.6003 2134.3806 2137.2417 2137.7619 2160.1305 2505.0231 
14:35:24.013666 2045 2037 2130.9993 2132.82 2131.2594 2130.7392 2131.7796 2125.5372 2128.9185 2132.2998 2132.0397 2134.9008 2133.6003 2136.2013 2159.8704 2504.763 
14:35:24.021665 2047 2040 2132.2998 2132.5599 2129.9589 2129.6988 2132.0397 2123.9766 2130.7392 2132.2998 2132.0397 2134.3806 2130.7392 2135.1609 2161.1709 2507.8842 
14:35:24.029667 2046 2040 2130.7392 2130.9993 2131.2594 2132.0397 2130.9993 2128.3983 2132.0397 2133.6003 2134.1205 2133.6003 2132.0397 2134.6407 2160.9108 2503.2024 
14:35:24.037664 2046 2039 2132.5599 2131.2594 2130.9993 2129.9589 2129.9589 2134.9008 2129.1786 2132.0397 2132.82 2135.1609 2132.82 2136.2013 2162.2113 2506.8438 
14:35:24.045668 2044 2038 2130.4791 2132.5599 2131.2594 2131.7796 2133.0801 2136.7215 2131.7796 2133.3402 2131.2594 2136.2013 2132.5599 2135.6811 2160.9108 2504.2428 
14:35:24.053668 2044 2038 2133.3402 2132.0397 2130.7392 2131.5195 2132.2998 2135.9412 2130.219 2133.6003 2133.6003 2135.6811 2133.3402 2136.4614 2161.1709 2506.0635 
14:35:24.061665 2043 2038 2132.2998 2131.2594 2131.5195 2132.5599 2131.7796 2132.0397 2132.5599 2133.0801 2135.421 2134.9008 2132.0397 2135.6811 2161.431 2501.6418 
14:35:24.069663 2047 2040 2132.2998 2130.7392 2131.7796 2130.4791 2129.4387 2125.7973 2128.6584 2131.2594 2132.82 2135.1609 2131.5195 2137.5018 2164.032 2507.364 
14:35:24.076744 2047 2039 2128.9185 2131.5195 2132.82 2132.0397 2130.9993 2125.017 2129.9589 2131.5195 2131.5195 2135.9412 2132.0397 2135.421 2160.1305 2505.0231 
14:35:24.084713 2045 2038 2130.4791 2132.0397 2131.5195 2130.9993 2130.9993 2129.9589 2128.1382 2131.5195 2132.5599 2135.6811 2131.5195 2134.1205 2158.0497 2507.1039 
14:35:24.092712 2044 2038 2129.9589 2132.82 2130.9993 2131.7796 2134.3806 2134.6407 2131.2594 2130.9993 2133.0801 2134.6407 2128.3983 2131.2594 2158.83 2503.9827 
14:35:24.100701 2045 2038 2132.2998 2130.9993 2130.7392 2129.1786 2131.2594 2134.6407 2130.219 2130.7392 2132.82 2135.6811 2130.7392 2131.7796 2159.0901 2506.3236 
14:35:24.108713 2044 2038 2132.2998 2130.7392 2131.2594 2128.3983 2129.9589 2131.2594 2129.6988 2131.2594 2132.0397 2135.6811 2131.7796 2132.0397 2157.2694 2503.9827 
14:35:24.116705 2044 2038 2132.5599 2132.2998 2131.5195 2128.3983 2130.9993 2127.0978 2127.0978 2131.7796 2131.7796 2133.6003 2133.3402 2137.7619 2161.6911 2505.2832 
14:35:24.124696 2047 2040 2131.2594 2132.2998 2131.7796 2129.6988 2132.2998 2127.618 2129.1786 2131.5195 2133.3402 2133.6003 2134.3806 2136.7215 2161.9512 2503.9827 
14:35:24.132683 2046 2040 2132.5599 2130.219 2133.3402 2130.4791 2130.7392 2129.9589 2130.7392 2132.2998 2135.1609 2135.421 2134.6407 2135.1609 2160.3906 2506.5837 
14:35:24.139664 2048 2038 2132.5599 2131.2594 2133.6003 2130.7392 2130.4791 2131.2594 2130.7392 2132.5599 2134.1205 2135.1609 2132.0397 2137.5018 2161.9512 2508.1443 
14:35:24.147660 2045 2037 2130.7392 2133.3402 2131.7796 2132.2998 2131.2594 2130.9993 2131.5195 2133.3402 2134.1205 2133.8604 2131.5195 2137.2417 2161.6911 2505.0231 
14:35:24.155664 2044 2039 2132.2998 2132.0397 2131.2594 2130.7392 2132.0397 2133.6003 2130.9993 2133.0801 2133.3402 2133.6003 2133.0801 2133.6003 2157.7896 2504.763 
14:35:24.163677 2045 2038 2131.2594 2130.4791 2133.6003 2131.2594 2134.3806 2134.6407 2131.5195 2132.82 2132.2998 2135.421 2133.6003 2133.6003 2156.4891 2502.4221 
14:35:24.171680 2046 2040 2133.0801 2132.82 2130.7392 2130.7392 2132.2998 2132.2998 2130.7392 2132.2998 2132.0397 2136.9816 2133.3402 2136.2013 2160.1305 2507.364 
14:35:24.179679 2048 2039 2132.5599 2134.1205 2129.4387 2132.5599 2129.9589 2126.8377 2133.0801 2132.5599 2132.82 2135.9412 2132.5599 2135.9412 2161.431 2505.5433 
14:35:24.187676 2046 2039 2132.5599 2132.82 2130.7392 2130.219 2129.1786 2126.8377 2128.6584 2132.5599 2131.5195 2135.1609 2132.0397 2137.7619 2162.9916 2509.4448 
14:35:24.195702 2044 2038 2129.4387 2131.7796 2132.5599 2131.5195 2132.2998 2132.82 2128.6584 2133.6003 2132.5599 2135.6811 2131.7796 2135.6811 2161.9512 2507.8842 
14:35:24.203691 2043 2035 2132.5599 2131.2594 2130.9993 2130.219 2130.9993 2136.4614 2126.8377 2131.2594 2133.6003 2134.9008 2130.7392 2134.1205 2161.9512 2512.3059 
14:35:24.210644 2044 2037 2131.2594 2131.7796 2131.2594 2131.5195 2132.0397 2133.6003 2131.7796 2130.9993 2134.1205 2134.6407 2129.9589 2132.82 2159.8704 2507.1039 
14:35:24.218558 2044 2038 2132.0397 2131.5195 2130.9993 2129.6988 2130.4791 2128.3983 2129.6988 2132.2998 2135.1609 2135.6811 2131.5195 2133.6003 2158.5699 2506.5837 
14:35:24.226677 2046 2038 2130.9993 2132.5599 2131.7796 2131.2594 2132.5599 2125.5372 2131.2594 2132.0397 2135.6811 2133.8604 2132.2998 2132.0397 2157.2694 2500.8615 
14:35:24.234713 2047 2039 2132.5599 2132.5599 2130.7392 2130.219 2132.0397 2127.8781 2129.4387 2129.6988 2133.6003 2132.82 2134.6407 2136.2013 2159.3502 2502.162 
14:35:24.242699 2046 2037 2129.1786 2132.82 2130.4791 2131.5195 2132.2998 2131.2594 2130.9993 2131.7796 2133.3402 2133.8604 2133.0801 2135.421 2157.7896 2500.8615 
14:35:24.250702 2044 2037 2130.219 2132.82 2131.5195 2131.5195 2131.2594 2133.0801 2128.6584 2133.8604 2133.8604 2133.6003 2132.2998 2136.2013 2159.6103 2506.3236 
14:35:24.258698 2043 2037 2131.2594 2133.6003 2132.5599 2131.5195 2130.4791 2133.8604 2129.4387 2132.5599 2131.7796 2133.6003 2131.7796 2136.7215 2160.6507 2505.5433 
14:35:24.266701 2044 2039 2131.2594 2131.7796 2132.2998 2130.9993 2128.1382 2131.7796 2128.6584 2131.5195 2130.9993 2134.9008 2131.2594 2135.9412 2158.83 2506.5837 
14:35:24.273698 2046 2039 2130.7392 2129.6988 2132.0397 2132.82 2131.5195 2127.618 2131.5195 2133.0801 2133.6003 2135.421 2132.0397 2133.6003 2157.2694 2502.9423 
14:35:24.281698 2046 2039 2132.5599 2129.4387 2132.0397 2132.5599 2134.9008 2126.5776 2133.6003 2134.3806 2134.6407 2135.9412 2136.4614 2137.5018 2159.8704 2501.1216 
14:35:24.289660 2044 2040 2133.0801 2130.7392 2131.7796 2130.219 2132.82 2131.2594 2131.7796 2132.5599 2132.5599 2135.1609 2135.421 2139.3225 2161.1709 2505.2832 
14:35:24.297699 2045 2037 2129.9589 2132.0397 2133.0801 2132.2998 2132.2998 2134.3806 2130.9993 2132.2998 2133.0801 2134.3806 2130.9993 2136.2013 2160.9108 2505.0231 
14:35:24.305717 2044 2038 2131.5195 2133.6003 2130.9993 2132.0397 2133.8604 2136.7215 2131.5195 2132.2998 2134.3806 2134.9008 2129.9589 2136.4614 2162.4714 2509.4448 
14:35:24.313700 2044 2038 2131.7796 2133.0801 2130.9993 2129.4387 2132.5599 2134.1205 2131.7796 2132.5599 2133.3402 2134.3806 2130.7392 2135.6811 2161.6911 2509.965 
14:35:24.320727 2044 2039 2132.5599 2133.0801 2132.2998 2127.618 2128.3983 2128.3983 2122.9362 2131.2594 2132.5599 2134.3806 2129.9589 2132.2998 2161.9512 2513.3463 
14:35:24.328717 2046 2039 2130.9993 2133.6003 2132.5599 2131.7796 2129.6988 2126.0574 2125.7973 2132.0397 2133.8604 2136.2013 2129.6988 2131.7796 2160.3906 2509.1847 
14:35:24.337697 2047 2039 2132.82 2131.2594 2130.4791 2129.9589 2129.6988 2128.9185 2131.2594 2132.82 2133.8604 2136.4614 2130.7392 2134.6407 2158.83 2510.2251 
14:35:24.344716 2046 2039 2130.4791 2130.9993 2132.0397 2130.7392 2132.5599 2130.7392 2133.8604 2132.2998 2134.6407 2135.1609 2130.219 2132.5599 2156.7492 2503.7226 
14:35:24.352712 2044 2038 2132.0397 2132.2998 2132.5599 2130.9993 2132.5599 2133.0801 2127.3579 2130.7392 2133.3402 2135.421 2132.0397 2135.1609 2158.83 2505.2832 
14:35:24.360718 2044 2036 2129.9589 2132.2998 2132.5599 2133.8604 2132.0397 2135.421 2130.219 2130.7392 2131.7796 2135.6811 2132.5599 2135.1609 2159.6103 2502.4221 
14:35:24.368717 2044 2036 2130.7392 2130.9993 2132.2998 2131.7796 2130.7392 2133.6003 2129.6988 2130.4791 2133.0801 2135.6811 2134.3806 2137.2417 2161.6911 2505.5433 
14:35:24.376719 2046 2039 2129.6988 2132.82 2132.82 2131.7796 2132.5599 2129.9589 2131.5195 2131.7796 2134.9008 2135.421 2133.3402 2135.421 2159.0901 2501.9019 
14:35:24.383699 2046 2039 2132.82 2132.82 2131.7796 2131.2594 2129.6988 2127.618 2130.9993 2133.3402 2132.5599 2135.421 2131.5195 2136.4614 2160.1305 2507.1039 
14:35:24.391698 2044 2039 2133.0801 2130.9993 2132.2998 2132.82 2129.4387 2128.3983 2133.6003 2133.3402 2131.5195 2135.6811 2132.5599 2136.4614 2161.6911 2507.8842 
14:35:24.400654 2043 2036 2133.3402 2130.4791 2133.3402 2132.0397 2130.9993 2131.7796 2130.7392 2131.7796 2134.3806 2136.4614 2134.9008 2136.2013 2160.6507 2507.364 
14:35:24.407553 2043 2036 2132.82 2131.2594 2132.0397 2130.4791 2134.1205 2136.2013 2132.2998 2130.9993 2134.3806 2136.2013 2132.5599 2134.1205 2158.3098 2503.4625 
14:35:24.415532 2044 2037 2133.6003 2132.0397 2130.4791 2129.9589 2131.7796 2135.421 2130.9993 2131.5195 2132.5599 2135.421 2131.5195 2136.7215 2160.6507 2504.763 
14:35:24.423525 2044 2037 2133.3402 2133.6003 2130.7392 2131.5195 2129.1786 2130.9993 2130.219 2132.5599 2132.5599 2134.6407 2133.0801 2138.022 2161.6911 2506.8438 
14:35:24.431527 2047 2040 2131.5195 2133.3402 2132.0397 2132.2998 2130.4791 2125.017 2129.9589 2132.5599 2134.3806 2135.1609 2133.3402 2136.2013 2160.9108 2506.8438 
14:35:24.439534 2047 2038 2131.7796 2133.6003 2131.5195 2132.2998 2132.0397 2124.2367 2129.4387 2132.2998 2134.3806 2135.6811 2130.219 2134.1205 2161.431 2510.2251 
14:35:24.447532 2045 2037 2129.6988 2133.8604 2131.5195 2134.9008 2132.5599 2129.6988 2132.5599 2133.8604 2133.0801 2135.6811 2129.4387 2133.8604 2159.8704 2506.5837 
14:35:24.455527 2043 2037 2130.4791 2133.8604 2131.7796 2133.0801 2130.7392 2135.6811 2130.4791 2131.2594 2131.7796 2135.6811 2129.1786 2132.0397 2158.5699 2506.0635 
14:35:24.462528 2044 2038 2130.7392 2132.82 2132.0397 2131.5195 2132.0397 2136.7215 2129.9589 2130.4791 2131.5195 2135.421 2131.5195 2132.5599 2158.5699 2503.9827 
14:35:24.470526 2045 2038 2132.5599 2132.5599 2130.7392 2129.1786 2130.7392 2132.82 2128.1382 2131.7796 2131.7796 2135.421 2134.9008 2137.5018 2159.8704 2506.0635 
14:35:24.478527 2046 2039 2130.219 2132.82 2133.0801 2132.0397 2131.5195 2126.3175 2130.219 2132.5599 2131.7796 2135.6811 2134.6407 2136.4614 2158.3098 2500.8615 
14:35:24.486526 2046 2039 2133.8604 2130.9993 2133.3402 2130.7392 2129.4387 2123.4564 2126.3175 2131.2594 2130.4791 2134.6407 2133.0801 2135.6811 2159.0901 2503.9827 
14:35:24.494528 2045 2039 2131.2594 2129.6988 2132.2998 2130.9993 2130.4791 2126.8377 2130.4791 2133.0801 2131.5195 2134.3806 2132.0397 2133.8604 2158.0497 2500.6014 
14:35:24.502421 2043 2037 2131.7796 2130.219 2131.2594 2128.6584 2129.4387 2133.6003 2129.4387 2132.2998 2132.5599 2135.6811 2134.1205 2136.7215 2159.3502 2505.0231 
14:35:24.510365 2043 2037 2132.0397 2131.5195 2133.3402 2132.0397 2131.7796 2137.7619 2132.0397 2130.7392 2132.5599 2135.9412 2134.6407 2136.4614 2159.0901 2500.8615 
14:35:24.518365 2044 2037 2134.1205 2129.6988 2132.5599 2132.0397 2131.5195 2135.9412 2133.6003 2130.9993 2132.5599 2135.9412 2133.6003 2137.7619 2161.431 2503.7226 
14:35:24.526368 2045 2039 2131.7796 2131.2594 2131.5195 2131.2594 2132.0397 2129.4387 2135.9412 2133.0801 2132.82 2135.6811 2132.82 2137.7619 2161.6911 2502.4221 
14:35:24.533368 2046 2037 2133.0801 2133.3402 2130.9993 2129.9589 2130.219 2125.017 2129.1786 2133.3402 2132.82 2134.6407 2135.421 2140.1028 2161.9512 2507.6241 
14:35:24.541367 2046 2039 2132.82 2132.5599 2130.9993 2131.2594 2131.5195 2127.3579 2129.1786 2131.5195 2133.8604 2134.1205 2134.3806 2139.8427 2160.9108 2508.9246 
14:35:24.549369 2044 2037 2132.82 2132.0397 2131.7796 2131.5195 2131.2594 2132.0397 2130.4791 2130.9993 2134.6407 2134.6407 2132.0397 2139.3225 2161.9512 2512.0458 
14:35:24.557374 2044 2037 2131.5195 2132.82 2132.82 2132.5599 2131.7796 2136.4614 2130.7392 2132.82 2133.0801 2134.6407 2130.219 2134.3806 2161.1709 2510.4852 
14:35:24.565375 2044 2037 2130.219 2130.9993 2132.0397 2131.5195 2131.2594 2135.9412 2129.4387 2133.3402 2134.1205 2134.9008 2130.4791 2130.7392 2159.8704 2507.6241 
14:35:24.573375 2044 2038 2131.2594 2131.5195 2130.7392 2130.219 2131.5195 2130.9993 2127.8781 2131.5195 2134.9008 2135.9412 2130.9993 2131.5195 2159.8704 2505.2832 
14:35:24.581375 2047 2040 2130.4791 2132.5599 2133.0801 2132.82 2131.5195 2125.017 2128.3983 2132.5599 2133.8604 2135.6811 2131.5195 2133.6003 2158.3098 2500.0812 
14:35:24.589393 2046 2040 2128.9185 2132.2998 2133.0801 2133.0801 2130.4791 2125.2771 2128.9185 2132.2998 2133.0801 2135.1609 2129.6988 2131.2594 2157.2694 2499.8211 
14:35:24.597387 2046 2038 2128.3983 2130.9993 2132.82 2133.3402 2131.7796 2130.4791 2130.7392 2131.2594 2133.3402 2135.1609 2131.2594 2131.7796 2158.83 2500.0812 
14:35:24.604386 2046 2038 2132.2998 2129.4387 2131.7796 2131.2594 2129.6988 2136.2013 2128.3983 2129.9589 2132.82 2134.9008 2134.1205 2136.7215 2160.1305 2503.2024 
14:35:24.612388 2043 2038 2131.2594 2130.7392 2131.2594 2132.0397 2128.6584 2136.2013 2130.7392 2130.7392 2134.3806 2134.9008 2132.2998 2134.9008 2158.0497 2500.6014 
14:35:24.620389 2045 2037 2133.3402 2133.0801 2130.4791 2129.9589 2130.219 2131.7796 2129.6988 2130.9993 2133.8604 2135.1609 2133.3402 2136.2013 2159.8704 2506.3236 
14:35:24.628431 2047 2037 2131.7796 2130.7392 2133.0801 2132.0397 2133.3402 2128.9185 2132.0397 2130.9993 2132.2998 2134.9008 2135.421 2138.8023 2160.6507 2502.4221 
14:35:24.636441 2046 2039 2133.3402 2127.3579 2131.7796 2129.9589 2129.6988 2128.9185 2129.9589 2130.7392 2131.7796 2134.9008 2134.3806 2140.623 2161.9512 2506.5837 
14:35:24.644418 2045 2039 2132.5599 2130.219 2130.4791 2131.5195 2132.0397 2129.6988 2133.6003 2133.3402 2133.3402 2135.6811 2134.3806 2138.5422 2161.431 2505.2832 
14:35:24.652437 2043 2038 2134.1205 2131.7796 2131.5195 2131.7796 2134.1205 2133.0801 2130.4791 2133.3402 2134.3806 2136.4614 2136.7215 2140.623 2162.2113 2508.4044 
14:35:24.660428 2044 2038 2130.4791 2131.2594 2132.82 2133.3402 2133.3402 2133.8604 2131.7796 2131.2594 2133.6003 2135.421 2133.0801 2136.4614 2160.6507 2506.3236 
14:35:24.675551 2044 2038 2130.7392 2134.9008 2131.2594 2130.4791 2132.0397 2132.5599 2132.82 2133.0801 2133.0801 2135.421 2129.9589 2131.7796 2159.3502 2507.8842 
14:35:24.683548 2045 2039 2130.9993 2133.3402 2131.2594 2130.4791 2131.7796 2131.7796 2128.3983 2132.82 2134.3806 2134.6407 2130.4791 2132.82 2159.0901 2507.8842 
14:35:24.691550 2046 2039 2130.4791 2133.6003 2131.5195 2132.0397 2131.2594 2126.5776 2126.0574 2132.2998 2133.0801 2135.1609 2130.7392 2132.5599 2158.83 2505.2832 
14:35:24.699555 2045 2038 2131.2594 2134.1205 2131.5195 2131.7796 2129.6988 2126.0574 2126.3175 2131.2594 2132.2998 2136.7215 2132.2998 2133.6003 2159.0901 2504.763 
14:35:24.707553 2045 2038 2130.9993 2133.0801 2130.9993 2130.4791 2129.1786 2128.9185 2128.9185 2130.7392 2132.5599 2136.7215 2131.5195 2133.0801 2158.83 2503.9827 
14:35:24.715554 2044 2039 2131.5195 2132.0397 2132.2998 2131.2594 2129.6988 2131.5195 2128.1382 2132.0397 2131.7796 2135.9412 2133.0801 2134.9008 2159.0901 2502.6822 
14:35:24.723554 2045 2039 2132.0397 2132.5599 2133.0801 2132.2998 2130.219 2135.1609 2126.3175 2130.7392 2130.9993 2134.9008 2133.8604 2135.9412 2159.3502 2501.6418 
14:35:24.730546 2045 2038 2129.9589 2132.2998 2132.82 2132.82 2130.9993 2131.5195 2129.9589 2130.4791 2131.7796 2133.8604 2131.7796 2134.6407 2158.3098 2500.3413 
14:35:24.738548 2046 2039 2132.2998 2132.0397 2130.9993 2130.219 2129.6988 2125.2771 2132.2998 2131.2594 2132.0397 2133.8604 2130.219 2134.6407 2158.83 2505.8034 
14:35:24.746552 2045 2040 2132.82 2131.7796 2131.7796 2131.7796 2130.219 2127.3579 2133.3402 2132.2998 2133.3402 2135.1609 2130.9993 2135.421 2159.6103 2503.4625 
14:35:24.754553 2046 2039 2133.8604 2129.4387 2130.7392 2129.6988 2130.219 2134.6407 2128.9185 2131.7796 2133.0801 2135.421 2134.1205 2138.5422 2161.431 2506.3236 
14:35:24.762553 2046 2039 2133.0801 2129.6988 2131.2594 2130.7392 2131.2594 2135.9412 2130.4791 2132.5599 2133.0801 2134.6407 2135.9412 2137.7619 2160.1305 2504.763 
14:35:24.770550 2044 2037 2135.421 2132.5599 2130.9993 2130.7392 2130.9993 2135.6811 2129.1786 2131.5195 2133.6003 2134.9008 2134.6407 2136.7215 2160.1305 2508.6645 
14:35:24.778549 2044 2038 2132.82 2133.0801 2131.5195 2131.7796 2132.5599 2132.2998 2130.4791 2130.9993 2132.82 2135.421 2131.7796 2135.9412 2159.0901 2504.5029 
14:35:24.786552 2046 2038 2133.3402 2132.2998 2130.9993 2130.4791 2130.9993 2127.8781 2125.7973 2130.9993 2132.2998 2135.9412 2131.2594 2138.022 2161.431 2508.6645 
14:35:24.794553 2047 2038 2130.4791 2133.6003 2131.7796 2133.8604 2133.6003 2127.0978 2130.219 2132.82 2133.0801 2135.6811 2130.4791 2134.1205 2160.3906 2505.8034 
14:35:24.801546 2046 2039 2130.9993 2133.0801 2131.5195 2130.9993 2132.2998 2128.3983 2129.6988 2132.5599 2132.0397 2135.6811 2129.9589 2133.6003 2159.0901 2506.5837 
14:35:24.809544 2045 2038 2129.9589 2133.0801 2132.0397 2130.7392 2131.2594 2130.219 2131.5195 2131.2594 2132.2998 2134.9008 2129.4387 2132.5599 2158.5699 2502.9423 
14:35:24.817544 2044 2037 2132.82 2132.2998 2130.7392 2131.2594 2129.6988 2132.82 2130.7392 2130.9993 2134.3806 2134.9008 2132.0397 2134.1205 2160.3906 2506.0635 
14:35:24.825544 2045 2038 2131.2594 2131.5195 2129.6988 2132.2998 2130.4791 2133.6003 2130.4791 2131.7796 2134.3806 2135.9412 2133.6003 2132.5599 2160.3906 2504.2428 
14:35:24.833543 2045 2038 2131.5195 2130.7392 2130.7392 2130.7392 2130.219 2129.9589 2126.3175 2130.9993 2131.7796 2135.9412 2135.421 2136.4614 2161.9512 2504.2428 
14:35:24.841520 2046 2038 2133.0801 2131.7796 2132.2998 2130.9993 2131.2594 2126.8377 2128.1382 2131.2594 2130.9993 2135.6811 2134.1205 2137.5018 2160.3906 2502.4221 
14:35:24.849544 2046 2038 2134.1205 2131.7796 2131.7796 2131.5195 2129.6988 2127.0978 2130.4791 2132.5599 2132.5599 2136.2013 2132.2998 2137.2417 2161.431 2506.8438 
14:35:24.857544 2046 2038 2132.2998 2131.5195 2131.2594 2131.7796 2129.9589 2130.7392 2129.9589 2132.0397 2132.82 2135.421 2132.2998 2137.2417 2162.4714 2508.9246 
14:35:24.864699 2044 2038 2130.219 2131.7796 2132.2998 2132.5599 2132.2998 2133.0801 2132.0397 2132.2998 2133.0801 2134.1205 2132.0397 2135.421 2160.3906 2505.8034 
14:35:24.872708 2043 2038 2131.7796 2131.7796 2132.0397 2131.2594 2130.9993 2134.3806 2133.0801 2131.2594 2132.82 2134.6407 2130.9993 2133.6003 2159.8704 2507.1039 
14:35:24.880709 2044 2037 2130.7392 2132.0397 2132.0397 2132.0397 2131.2594 2134.1205 2132.2998 2130.9993 2133.6003 2135.6811 2133.8604 2134.1205 2159.8704 2503.4625 
14:35:24.888682 2045 2038 2132.82 2132.5599 2131.2594 2130.4791 2134.1205 2132.82 2130.219 2130.4791 2133.6003 2135.421 2135.421 2136.2013 2160.1305 2505.2832 
14:35:24.896699 2047 2039 2132.5599 2132.0397 2131.7796 2131.7796 2134.9008 2128.9185 2132.0397 2129.9589 2133.8604 2135.421 2132.0397 2135.9412 2160.1305 2505.0231 
14:35:24.904695 2047 2039 2133.6003 2132.82 2130.7392 2131.5195 2129.9589 2126.3175 2127.3579 2128.9185 2133.8604 2135.421 2130.219 2138.022 2162.7315 2509.7049 
14:35:24.912697 2046 2038 2130.219 2134.3806 2131.2594 2132.82 2130.219 2127.618 2129.6988 2131.2594 2133.6003 2134.6407 2130.7392 2135.6811 2160.6507 2505.8034 
14:35:24.920694 2045 2038 2131.5195 2133.6003 2132.2998 2129.9589 2130.9993 2131.5195 2128.6584 2130.9993 2133.8604 2134.1205 2130.4791 2132.82 2160.3906 2510.4852 
14:35:24.928700 2043 2037 2130.4791 2132.82 2133.8604 2131.2594 2132.5599 2134.1205 2130.9993 2130.4791 2134.6407 2134.6407 2130.219 2130.4791 2159.8704 2505.8034 
14:35:24.935679 2045 2036 2133.0801 2133.0801 2131.5195 2130.7392 2128.6584 2132.82 2129.1786 2130.9993 2133.6003 2136.2013 2132.2998 2132.0397 2160.1305 2506.3236 
14:35:24.943679 2046 2038 2131.2594 2132.2998 2130.4791 2133.3402 2130.7392 2129.1786 2131.7796 2131.2594 2133.3402 2136.2013 2132.2998 2131.2594 2158.5699 2502.4221 
14:35:24.951681 2047 2039 2132.5599 2130.4791 2130.7392 2132.2998 2132.2998 2126.5776 2128.3983 2130.219 2133.3402 2134.6407 2134.9008 2136.4614 2159.3502 2503.9827 
14:35:24.959677 2046 2037 2130.9993 2132.82 2130.4791 2131.7796 2131.5195 2127.3579 2130.219 2131.5195 2132.82 2134.6407 2133.8604 2135.6811 2158.5699 2501.9019 
14:35:24.967681 2045 2038 2132.82 2133.3402 2129.6988 2130.219 2128.1382 2131.2594 2128.6584 2132.82 2132.0397 2136.4614 2132.0397 2136.2013 2161.1709 2507.8842 
14:35:24.975679 2042 2036 2133.6003 2130.9993 2131.7796 2131.7796 2129.4387 2134.9008 2128.6584 2131.2594 2131.7796 2136.2013 2131.7796 2136.4614 2162.4714 2507.1039 
14:35:24.983678 2043 2036 2133.6003 2130.7392 2131.5195 2131.7796 2131.5195 2135.1609 2130.7392 2128.9185 2132.2998 2135.9412 2133.8604 2136.4614 2162.4714 2507.8842 
14:35:24.991680 2046 2039 2132.0397 2133.3402 2128.6584 2130.7392 2132.0397 2130.219 2133.8604 2130.219 2132.5599 2135.9412 2132.82 2134.9008 2159.3502 2507.6241 
14:35:24.998682 2046 2040 2131.7796 2132.2998 2130.4791 2130.9993 2130.7392 2125.2771 2130.219 2132.82 2132.82 2135.421 2132.2998 2136.2013 2157.7896 2503.2024 
14:35:25.006680 2048 2039 2133.3402 2130.7392 2132.0397 2130.7392 2131.2594 2129.9589 2128.9185 2132.82 2133.3402 2134.9008 2133.0801 2137.2417 2158.83 2501.6418 
14:35:25.014677 2045 2037 2131.2594 2132.2998 2131.7796 2132.0397 2132.5599 2134.3806 2131.5195 2132.82 2134.1205 2135.6811 2133.6003 2135.6811 2159.0901 2502.9423 
14:35:25.022680 2045 2036 2130.7392 2133.6003 2131.5195 2131.2594 2131.7796 2134.6407 2129.9589 2132.2998 2133.0801 2135.9412 2131.5195 2134.3806 2160.1305 2506.8438 
14:35:25.030677 2045 2037 2130.4791 2132.5599 2132.5599 2132.5599 2130.7392 2133.8604 2131.2594 2132.5599 2132.5599 2135.1609 2129.9589 2134.1205 2160.3906 2504.2428 
14:35:25.038679 2045 2038 2132.82 2132.0397 2130.9993 2130.9993 2129.1786 2131.2594 2128.1382 2132.2998 2133.8604 2134.6407 2129.6988 2133.6003 2161.1709 2510.7453 
14:35:25.046679 2046 2039 2130.9993 2132.5599 2131.2594 2132.2998 2131.7796 2125.7973 2129.1786 2133.6003 2134.9008 2134.9008 2130.9993 2132.2998 2159.6103 2508.9246 
14:35:25.054677 2044 2038 2131.7796 2131.5195 2130.219 2129.6988 2131.2594 2126.0574 2128.3983 2132.0397 2134.3806 2135.421 2132.0397 2132.82 2158.5699 2507.8842 
14:35:25.062681 2045 2038 2130.4791 2131.5195 2131.2594 2131.2594 2131.2594 2129.9589 2132.0397 2131.5195 2133.6003 2134.9008 2131.5195 2131.5195 2157.0093 2502.6822 
14:35:25.069637 2045 2038 2133.8604 2131.2594 2132.5599 2130.9993 2129.6988 2133.8604 2127.0978 2130.4791 2131.5195 2134.6407 2133.8604 2133.6003 2159.0901 2506.0635 
14:35:25.077679 2043 2038 2131.7796 2133.0801 2133.0801 2133.0801 2132.82 2135.1609 2128.3983 2131.7796 2131.7796 2135.6811 2133.8604 2133.6003 2159.3502 2501.9019 
14:35:25.085680 2044 2037 2132.2998 2133.8604 2130.7392 2131.5195 2131.2594 2131.2594 2127.8781 2132.5599 2132.2998 2135.421 2133.3402 2137.5018 2160.6507 2506.8438 
14:35:25.093680 2044 2038 2130.4791 2133.0801 2132.2998 2133.3402 2131.7796 2128.3983 2131.5195 2132.5599 2131.7796 2134.3806 2132.0397 2135.9412 2158.83 2504.2428 
14:35:25.101625 2045 2038 2132.0397 2132.0397 2133.0801 2131.7796 2131.7796 2130.9993 2131.2594 2130.7392 2131.7796 2135.1609 2131.7796 2135.1609 2161.6911 2509.1847 
14:35:25.109670 2045 2039 2130.9993 2132.5599 2130.7392 2131.7796 2131.2594 2132.5599 2132.5599 2129.9589 2132.5599 2136.7215 2131.7796 2134.9008 2162.4714 2508.9246 
14:35:25.117679 2044 2038 2132.0397 2130.9993 2129.6988 2131.5195 2129.4387 2132.0397 2129.6988 2130.7392 2132.0397 2135.9412 2133.6003 2136.2013 2159.8704 2506.0635 
14:35:25.124737 2043 2036 2133.0801 2130.9993 2131.5195 2131.5195 2132.2998 2134.3806 2130.7392 2131.2594 2133.3402 2134.1205 2132.2998 2134.1205 2158.0497 2502.4221 
14:35:25.132708 2045 2036 2134.3806 2133.0801 2131.2594 2130.9993 2131.7796 2134.9008 2129.1786 2131.5195 2134.1205 2135.6811 2131.7796 2135.9412 2161.1709 2506.3236 
14:35:25.140709 2044 2038 2132.5599 2134.1205 2129.9589 2132.5599 2130.9993 2133.0801 2128.3983 2132.0397 2131.2594 2136.7215 2133.6003 2137.7619 2161.9512 2507.6241 
14:35:25.148697 2047 2040 2129.1786 2132.82 2131.5195 2132.82 2131.7796 2129.1786 2129.4387 2132.2998 2131.7796 2134.6407 2133.6003 2135.1609 2160.3906 2506.3236 
14:35:25.156700 2046 2040 2129.9589 2133.3402 2131.7796 2129.4387 2130.9993 2125.5372 2128.9185 2130.7392 2134.9008 2133.8604 2129.1786 2132.0397 2160.9108 2509.7049 
14:35:25.164694 2045 2038 2129.6988 2134.1205 2132.0397 2130.9993 2132.0397 2126.0574 2130.7392 2131.5195 2134.3806 2135.6811 2129.6988 2132.5599 2159.8704 2505.5433 
14:35:25.172675 2044 2037 2129.6988 2133.3402 2132.0397 2131.7796 2132.5599 2133.0801 2130.7392 2131.7796 2132.2998 2135.9412 2132.0397 2131.2594 2158.3098 2504.5029 
14:35:25.180703 2043 2037 2128.6584 2132.82 2132.82 2133.0801 2132.2998 2136.4614 2131.7796 2130.4791 2133.3402 2134.9008 2132.82 2129.9589 2157.7896 2502.4221 
14:35:25.188714 2044 2037 2131.5195 2132.0397 2132.0397 2131.2594 2128.9185 2132.82 2126.5776 2129.1786 2133.0801 2135.421 2134.3806 2134.1205 2159.6103 2505.0231 
14:35:25.195691 2044 2038 2130.4791 2131.7796 2132.0397 2132.5599 2130.219 2127.0978 2128.6584 2131.5195 2133.0801 2135.421 2134.3806 2135.421 2159.8704 2502.4221 
14:35:25.203692 2046 2039 2132.0397 2132.2998 2130.9993 2129.4387 2129.4387 2124.7569 2127.0978 2131.5195 2133.8604 2134.6407 2134.9008 2138.2821 2161.431 2507.1039 
14:35:25.211691 2046 2038 2130.4791 2133.3402 2131.5195 2131.7796 2130.4791 2126.0574 2130.219 2130.4791 2133.0801 2135.421 2134.3806 2135.421 2160.3906 2503.4625 
14:35:25.219691 2045 2038 2131.7796 2130.9993 2131.2594 2131.7796 2130.219 2131.7796 2128.9185 2130.4791 2132.2998 2135.9412 2134.3806 2135.1609 2162.2113 2509.1847 
14:35:25.227695 2043 2037 2129.6988 2131.2594 2132.2998 2133.0801 2132.2998 2136.4614 2131.5195 2132.5599 2133.6003 2134.6407 2132.5599 2134.1205 2160.9108 2506.3236 
14:35:25.235710 2044 2037 2132.0397 2132.5599 2132.2998 2132.2998 2132.5599 2136.4614 2130.9993 2132.5599 2134.9008 2134.3806 2131.5195 2134.3806 2159.6103 2507.1039 
14:35:25.243700 2045 2038 2131.5195 2132.2998 2131.7796 2133.6003 2132.5599 2132.2998 2135.421 2132.5599 2135.1609 2135.421 2131.5195 2132.2998 2158.3098 2504.2428 
14:35:25.251707 2046 2039 2132.2998 2131.7796 2130.4791 2131.7796 2129.4387 2125.7973 2131.2594 2132.2998 2134.3806 2136.2013 2134.3806 2136.9816 2160.1305 2507.1039 
14:35:25.259631 2046 2039 2131.5195 2132.5599 2130.9993 2130.7392 2132.2998 2123.9766 2128.9185 2132.0397 2132.0397 2135.9412 2133.8604 2137.2417 2160.9108 2507.1039 
14:35:25.266602 2044 2037 2131.7796 2131.2594 2130.4791 2129.6988 2132.2998 2128.1382 2128.3983 2132.0397 2132.2998 2134.1205 2130.9993 2134.1205 2161.9512 2510.7453 
14:35:25.274600 2043 2035 2130.9993 2132.2998 2130.4791 2130.9993 2130.4791 2134.9008 2130.4791 2131.5195 2134.1205 2133.6003 2130.7392 2133.3402 2160.9108 2509.7049 
14:35:25.282546 2043 2036 2131.5195 2133.3402 2132.5599 2131.7796 2129.6988 2136.7215 2130.9993 2130.7392 2132.0397 2135.9412 2133.3402 2134.9008 2158.0497 2504.763 
14:35:25.290540 2045 2037 2131.2594 2132.5599 2133.0801 2130.4791 2130.219 2133.3402 2129.6988 2130.4791 2131.2594 2136.7215 2130.4791 2132.0397 2157.2694 2504.5029 
14:35:25.298541 2046 2038 2129.9589 2131.2594 2130.9993 2131.7796 2130.9993 2126.3175 2130.219 2130.9993 2134.1205 2135.6811 2130.4791 2133.3402 2159.6103 2505.0231 
14:35:25.306545 2046 2038 2131.5195 2132.0397 2130.219 2132.5599 2131.2594 2124.2367 2129.6988 2130.4791 2133.6003 2135.1609 2132.5599 2133.6003 2159.3502 2504.763 
14:35:25.314546 2045 2039 2130.219 2132.0397 2133.0801 2132.82 2132.82 2128.1382 2131.2594 2132.82 2131.2594 2135.1609 2133.0801 2133.3402 2157.7896 2501.3817 
14:35:25.321546 2044 2038 2131.7796 2131.7796 2133.0801 2130.4791 2130.7392 2133.6003 2128.3983 2133.8604 2130.7392 2135.9412 2134.9008 2139.0624 2161.9512 2507.1039 
14:35:25.329551 2044 2038 2130.7392 2133.0801 2131.7796 2132.82 2130.219 2135.1609 2129.6988 2132.0397 2131.5195 2135.6811 2135.6811 2138.8023 2163.2517 2506.0635 
14:35:25.337548 2045 2037 2131.7796 2133.6003 2130.4791 2132.0397 2127.8781 2133.6003 2129.4387 2130.9993 2132.5599 2134.3806 2132.2998 2134.3806 2160.6507 2507.6241 
14:35:25.345549 2045 2038 2129.9589 2132.0397 2131.7796 2132.82 2130.219 2128.6584 2134.1205 2133.6003 2134.1205 2134.6407 2131.5195 2132.5599 2157.5295 2503.2024 
14:35:25.353545 2043 2039 2133.3402 2131.2594 2130.4791 2130.4791 2132.0397 2128.6584 2131.5195 2133.3402 2132.5599 2135.421 2136.7215 2137.7619 2161.431 2507.1039 
14:35:25.361548 2044 2038 2132.2998 2132.2998 2130.4791 2132.82 2135.1609 2133.3402 2133.6003 2132.82 2131.7796 2134.3806 2137.7619 2137.7619 2162.9916 2501.3817 
14:35:25.369550 2045 2038 2133.3402 2132.0397 2131.2594 2132.0397 2133.6003 2134.1205 2131.5195 2132.82 2132.82 2134.1205 2135.6811 2140.3629 2164.032 2506.3236 
14:35:25.377554 2045 2038 2131.5195 2132.5599 2132.82 2132.5599 2133.8604 2131.7796 2133.0801 2133.0801 2132.82 2135.6811 2132.82 2136.7215 2161.9512 2507.1039 
14:35:25.385543 2044 2038 2132.2998 2133.6003 2130.9993 2131.5195 2132.5599 2132.2998 2129.6988 2131.2594 2132.0397 2135.9412 2132.2998 2133.6003 2162.2113 2511.2655 
14:35:25.392566 2043 2038 2130.7392 2134.3806 2130.7392 2131.7796 2132.82 2133.8604 2131.7796 2130.7392 2132.2998 2135.421 2129.4387 2132.0397 2160.9108 2508.1443 
14:35:25.400562 2044 2039 2131.5195 2133.0801 2131.5195 2129.6988 2130.219 2129.9589 2128.9185 2130.7392 2133.0801 2135.1609 2129.1786 2133.0801 2159.6103 2508.6645 
14:35:25.408574 2047 2038 2130.219 2131.7796 2131.5195 2130.4791 2130.9993 2127.3579 2127.618 2131.2594 2132.2998 2135.421 2129.9589 2129.6988 2158.0497 2504.763 
14:35:25.416557 2046 2038 2130.4791 2130.7392 2130.9993 2130.9993 2130.4791 2128.3983 2127.618 2132.2998 2132.5599 2136.2013 2132.82 2131.2594 2159.0901 2502.6822 
14:35:25.424557 2045 2037 2130.219 2131.7796 2131.5195 2130.7392 2129.1786 2128.1382 2128.1382 2131.7796 2134.1205 2135.421 2132.82 2132.82 2159.6103 2502.162 
14:35:25.432552 2044 2039 2129.4387 2133.0801 2131.2594 2132.5599 2128.9185 2127.618 2127.3579 2131.5195 2133.8604 2134.9008 2133.6003 2133.8604 2159.0901 2501.3817 
14:35:25.440555 2043 2038 2129.9589 2133.0801 2130.219 2132.0397 2129.9589 2131.5195 2127.0978 2130.9993 2131.2594 2135.1609 2135.1609 2135.1609 2158.83 2501.6418 
14:35:25.448551 2044 2037 2129.4387 2132.0397 2131.5195 2132.5599 2131.2594 2133.3402 2130.7392 2131.7796 2130.9993 2135.421 2133.6003 2135.6811 2159.6103 2501.9019 
14:35:25.455539 2044 2037 2132.0397 2131.2594 2132.2998 2132.2998 2130.219 2131.7796 2131.2594 2131.7796 2131.7796 2134.6407 2132.5599 2134.3806 2161.9512 2505.8034 
14:35:25.463539 2045 2037 2130.9993 2130.219 2133.0801 2132.82 2130.219 2130.4791 2133.0801 2131.2594 2132.2998 2134.1205 2134.3806 2133.3402 2160.3906 2502.6822 
14:35:25.471687 2046 2038 2133.0801 2130.4791 2131.7796 2129.1786 2130.7392 2132.0397 2131.2594 2130.219 2132.0397 2134.1205 2135.9412 2138.8023 2160.9108 2507.364 
14:35:25.479696 2046 2037 2132.2998 2130.9993 2131.7796 2129.9589 2132.82 2133.3402 2132.5599 2132.5599 2133.0801 2133.8604 2136.2013 2140.3629 2162.7315 2505.0231 
14:35:25.487693 2044 2038 2133.8604 2131.7796 2130.9993 2129.6988 2130.7392 2134.1205 2129.4387 2133.0801 2133.0801 2134.6407 2135.6811 2139.5826 2164.2921 2507.8842 
14:35:25.495689 2045 2037 2131.7796 2133.8604 2132.0397 2131.5195 2132.2998 2133.8604 2132.0397 2131.7796 2132.5599 2134.9008 2132.5599 2137.5018 2161.9512 2505.8034 
14:35:25.503595 2045 2038 2133.8604 2133.6003 2131.2594 2129.4387 2131.7796 2132.82 2128.9185 2130.9993 2133.6003 2134.3806 2130.7392 2139.0624 2162.9916 2511.2655 
14:35:25.511692 2045 2038 2130.9993 2132.0397 2131.5195 2130.4791 2131.2594 2132.2998 2131.2594 2133.3402 2135.421 2134.3806 2130.7392 2134.9008 2159.8704 2506.3236 
14:35:25.519693 2046 2040 2130.7392 2131.2594 2130.7392 2130.4791 2128.6584 2129.9589 2129.6988 2131.5195 2133.8604 2134.3806 2129.9589 2132.82 2158.0497 2507.6241 
14:35:25.526691 2045 2039 2130.219 2132.82 2131.5195 2132.82 2131.5195 2127.618 2131.7796 2130.9993 2133.0801 2134.9008 2128.9185 2129.9589 2157.5295 2503.4625 
14:35:25.534685 2044 2037 2132.2998 2130.9993 2132.2998 2129.9589 2130.9993 2127.8781 2127.8781 2132.2998 2134.3806 2135.9412 2132.0397 2130.7392 2158.83 2503.2024 
14:35:25.542686 2042 2037 2130.9993 2129.9589 2132.2998 2129.4387 2130.219 2132.5599 2126.5776 2131.2594 2132.5599 2135.1609 2131.7796 2131.5195 2159.0901 2502.4221 
14:35:25.550690 2042 2036 2132.2998 2130.9993 2132.2998 2130.4791 2129.6988 2134.9008 2127.3579 2130.219 2130.219 2133.8604 2133.3402 2135.6811 2161.1709 2506.0635 
14:35:25.558687 2045 2038 2133.0801 2131.5195 2132.82 2131.7796 2130.4791 2131.2594 2128.9185 2132.0397 2131.2594 2134.3806 2135.9412 2136.2013 2159.6103 2504.5029 
14:35:25.566690 2047 2039 2133.0801 2130.9993 2130.9993 2130.4791 2129.6988 2125.2771 2127.0978 2132.0397 2132.2998 2136.2013 2133.6003 2136.9816 2160.3906 2506.5837 
14:35:25.574691 2047 2040 2133.0801 2131.5195 2129.4387 2128.9185 2130.4791 2122.9362 2128.3983 2130.7392 2130.7392 2135.9412 2130.7392 2137.5018 2163.5118 2507.8842 
14:35:25.582684 2045 2038 2131.5195 2132.82 2132.0397 2130.4791 2131.5195 2126.3175 2132.2998 2132.82 2131.2594 2134.3806 2132.82 2135.1609 2160.9108 2505.2832 
14:35:25.589691 2043 2036 2132.0397 2131.7796 2132.5599 2131.5195 2131.2594 2136.7215 2132.0397 2132.2998 2133.0801 2133.8604 2133.3402 2132.2998 2157.0093 2506.3236 
14:35:25.597692 2044 2037 2132.2998 2130.9993 2130.9993 2132.5599 2132.5599 2141.9235 2131.5195 2130.9993 2133.0801 2134.3806 2132.2998 2133.6003 2158.3098 2502.6822 
14:35:25.605695 2043 2038 2134.6407 2132.82 2129.6988 2130.4791 2133.6003 2137.5018 2129.1786 2131.7796 2132.0397 2135.421 2132.5599 2137.7619 2162.7315 2506.5837 
14:35:25.613691 2046 2038 2131.5195 2134.3806 2131.5195 2131.5195 2134.3806 2127.8781 2129.4387 2133.0801 2133.3402 2134.9008 2132.5599 2136.9816 2162.7315 2507.6241 
14:35:25.621690 2046 2040 2131.5195 2133.8604 2131.2594 2130.7392 2130.9993 2122.9362 2126.8377 2132.2998 2132.82 2134.3806 2131.7796 2136.2013 2162.4714 2510.4852 
14:35:25.629686 2045 2039 2131.7796 2132.5599 2131.5195 2132.2998 2130.7392 2126.0574 2130.219 2131.5195 2132.0397 2134.6407 2130.9993 2134.9008 2160.3906 2505.2832 
14:35:25.637692 2044 2036 2133.8604 2133.0801 2130.9993 2130.4791 2129.4387 2134.1205 2127.8781 2130.7392 2133.3402 2134.9008 2129.9589 2134.3806 2161.1709 2510.4852 
14:35:25.645691 2042 2036 2129.6988 2133.6003 2132.0397 2132.2998 2131.7796 2139.3225 2130.9993 2132.2998 2134.6407 2135.9412 2129.6988 2131.2594 2159.6103 2506.8438 
14:35:25.652749 2043 2037 2131.2594 2131.5195 2133.3402 2130.9993 2130.219 2135.6811 2129.1786 2132.2998 2133.6003 2135.6811 2131.5195 2132.5599 2158.5699 2507.1039 
14:35:25.660722 2046 2040 2130.9993 2131.5195 2133.8604 2132.5599 2131.7796 2126.8377 2130.219 2132.5599 2133.6003 2133.6003 2132.0397 2132.0397 2157.7896 2501.9019 
14:35:25.668697 2046 2041 2131.5195 2133.0801 2131.2594 2131.2594 2131.2594 2122.6761 2128.1382 2133.3402 2133.6003 2134.1205 2134.6407 2136.9816 2160.6507 2504.2428 
14:35:25.676707 2045 2037 2129.6988 2133.3402 2130.7392 2131.2594 2132.2998 2127.8781 2131.7796 2133.0801 2131.7796 2136.2013 2133.3402 2136.2013 2158.83 2502.4221 
14:35:25.692709 2043 2037 2135.421 2130.7392 2133.0801 2132.0397 2130.9993 2136.7215 2129.6988 2131.5195 2134.1205 2133.6003 2131.5195 2137.2417 2163.2517 2505.0231 
14:35:25.700656 2043 2035 2133.3402 2132.5599 2131.7796 2129.9589 2130.7392 2136.4614 2130.219 2133.6003 2134.1205 2135.1609 2132.2998 2134.6407 2162.9916 2506.3236 
14:35:25.708686 2045 2036 2132.0397 2132.82 2131.5195 2129.1786 2132.0397 2131.5195 2131.5195 2132.2998 2132.0397 2135.6811 2131.5195 2131.2594 2159.0901 2507.8842 
14:35:25.716689 2047 2038 2133.0801 2131.2594 2131.2594 2130.9993 2131.5195 2124.4968 2129.4387 2131.7796 2131.5195 2135.421 2132.82 2134.1205 2158.83 2503.4625 
14:35:25.723671 2045 2040 2133.3402 2131.5195 2130.9993 2130.219 2131.5195 2126.0574 2129.4387 2132.5599 2132.82 2135.6811 2134.1205 2136.2013 2160.6507 2501.9019 
14:35:25.731667 2045 2039 2129.9589 2132.5599 2132.0397 2131.5195 2132.82 2131.7796 2129.4387 2133.0801 2132.82 2135.6811 2132.82 2134.6407 2159.6103 2503.7226 
14:35:25.739663 2044 2038 2129.9589 2133.6003 2131.2594 2132.2998 2132.0397 2135.6811 2128.1382 2130.9993 2132.0397 2135.421 2130.7392 2133.3402 2159.8704 2507.8842 
14:35:25.747665 2044 2036 2130.9993 2134.9008 2132.2998 2132.5599 2133.3402 2135.421 2131.5195 2130.9993 2132.82 2136.2013 2131.2594 2132.2998 2160.1305 2505.0231 
14:35:25.755668 2044 2037 2133.3402 2133.6003 2132.82 2129.6988 2130.7392 2130.9993 2126.8377 2133.0801 2133.8604 2135.421 2130.9993 2132.2998 2160.9108 2511.0054 
14:35:25.763668 2047 2038 2129.4387 2131.7796 2132.5599 2130.4791 2128.3983 2125.7973 2126.8377 2134.1205 2133.8604 2134.1205 2130.4791 2131.5195 2158.83 2508.6645 
14:35:25.771667 2047 2039 2130.7392 2132.5599 2130.4791 2128.9185 2128.9185 2126.5776 2128.9185 2131.2594 2131.5195 2134.9008 2132.0397 2132.5599 2158.3098 2507.364 
14:35:25.779663 2044 2039 2131.2594 2133.3402 2132.2998 2132.0397 2134.1205 2129.1786 2132.82 2132.2998 2132.0397 2135.6811 2132.82 2132.5599 2157.5295 2502.162 
14:35:25.786669 2045 2038 2133.0801 2131.7796 2131.7796 2130.7392 2130.219 2129.9589 2125.2771 2134.1205 2133.8604 2134.9008 2134.3806 2135.421 2159.0901 2505.0231 
14:35:25.794667 2044 2038 2129.6988 2132.5599 2131.7796 2131.7796 2129.4387 2132.2998 2127.3579 2134.1205 2134.9008 2134.1205 2133.8604 2134.3806 2159.0901 2502.4221 
14:35:25.802666 2043 2038 2132.0397 2133.6003 2131.7796 2130.9993 2131.2594 2133.8604 2128.3983 2132.5599 2133.6003 2134.3806 2133.0801 2138.2821 2161.9512 2508.6645 
14:35:25.810667 2043 2037 2131.7796 2132.5599 2132.5599 2131.7796 2132.82 2129.9589 2130.9993 2132.0397 2133.0801 2134.9008 2131.2594 2136.2013 2160.3906 2504.5029 
14:35:25.818655 2045 2038 2132.82 2132.82 2131.7796 2128.6584 2131.2594 2128.1382 2130.219 2131.2594 2134.3806 2135.421 2130.7392 2133.8604 2161.6911 2508.9246 
14:35:25.826655 2047 2039 2132.5599 2133.6003 2131.2594 2128.6584 2132.0397 2130.7392 2133.3402 2132.0397 2133.6003 2134.9008 2130.9993 2133.8604 2162.7315 2509.7049 
14:35:25.834656 2045 2038 2133.0801 2130.7392 2129.9589 2129.9589 2130.7392 2132.82 2130.4791 2131.7796 2133.6003 2135.1609 2133.8604 2135.1609 2161.431 2506.3236 
14:35:25.842618 2043 2038 2132.0397 2130.219 2129.6988 2131.2594 2131.7796 2134.1205 2131.2594 2131.2594 2134.1205 2135.6811 2134.1205 2133.3402 2158.5699 2501.3817 
14:35:25.849656 2042 2037 2132.82 2132.2998 2132.82 2130.4791 2131.5195 2135.6811 2131.2594 2133.3402 2133.0801 2135.6811 2133.0801 2136.9816 2160.9108 2505.5433 
14:35:25.857653 2043 2037 2133.0801 2134.3806 2132.82 2130.4791 2132.2998 2134.9008 2130.219 2133.6003 2132.5599 2135.1609 2131.5195 2138.8023 2162.7315 2507.364 
14:35:25.865651 2048 2038 2132.5599 2133.8604 2129.9589 2131.7796 2132.82 2128.9185 2128.9185 2133.0801 2133.0801 2134.9008 2132.0397 2134.9008 2160.3906 2504.2428 
14:35:25.873653 2048 2040 2132.0397 2132.5599 2129.9589 2130.4791 2132.0397 2123.9766 2129.1786 2132.5599 2133.3402 2134.9008 2131.2594 2132.5599 2159.6103 2506.5837 
14:35:25.881653 2046 2038 2129.1786 2131.2594 2132.2998 2130.9993 2130.9993 2125.017 2132.5599 2131.7796 2134.1205 2134.9008 2130.7392 2133.6003 2159.0901 2504.763 
14:35:25.889655 2045 2038 2131.2594 2131.7796 2130.9993 2131.2594 2130.4791 2132.0397 2130.9993 2130.4791 2133.8604 2135.1609 2129.4387 2132.2998 2158.0497 2504.5029 
14:35:25.897653 2043 2037 2131.5195 2132.82 2131.2594 2133.3402 2133.3402 2138.022 2130.9993 2131.5195 2132.82 2135.421 2130.9993 2131.5195 2157.2694 2501.3817 
14:35:25.905653 2044 2037 2132.2998 2133.0801 2132.0397 2130.7392 2130.9993 2138.022 2127.618 2130.9993 2133.0801 2135.421 2134.6407 2135.6811 2159.6103 2503.9827 
14:35:25.913657 2047 2038 2130.219 2133.6003 2131.5195 2131.5195 2130.9993 2128.9185 2129.1786 2131.7796 2133.8604 2135.1609 2133.3402 2136.2013 2160.1305 2502.162 
14:35:25.920731 2046 2040 2133.6003 2133.3402 2129.4387 2130.219 2130.7392 2120.8554 2127.3579 2130.9993 2131.7796 2134.6407 2131.2594 2138.022 2160.6507 2507.364 
14:35:25.928706 2046 2039 2131.5195 2132.5599 2131.2594 2131.7796 2132.0397 2122.1559 2130.9993 2131.2594 2132.0397 2135.1609 2131.2594 2135.9412 2159.3502 2503.4625 
14:35:25.936703 2045 2037 2131.7796 2131.7796 2132.2998 2129.9589 2130.4791 2131.5195 2129.9589 2131.2594 2132.82 2135.6811 2132.0397 2135.421 2162.2113 2508.6645 
14:35:25.944692 2045 2036 2129.4387 2132.0397 2133.6003 2130.4791 2132.82 2138.8023 2133.8604 2132.2998 2133.6003 2135.1609 2130.4791 2133.0801 2160.9108 2505.2832 
14:35:25.952693 2045 2039 2132.2998 2131.5195 2132.0397 2129.9589 2133.0801 2136.7215 2132.2998 2132.5599 2133.0801 2135.1609 2131.5195 2135.6811 2159.0901 2506.0635 
14:35:25.960690 2045 2039 2132.2998 2131.5195 2131.5195 2132.5599 2133.3402 2130.219 2133.0801 2133.3402 2132.0397 2135.9412 2132.0397 2135.421 2159.0901 2502.9423 
14:35:25.968692 2046 2038 2132.82 2131.5195 2131.7796 2129.6988 2131.5195 2125.7973 2129.1786 2133.0801 2132.0397 2135.6811 2132.5599 2137.2417 2162.2113 2507.6241 
14:35:25.976695 2047 2039 2132.5599 2132.5599 2133.0801 2128.9185 2132.0397 2127.3579 2129.1786 2131.2594 2133.6003 2134.9008 2133.0801 2136.4614 2161.6911 2510.4852 
14:35:25.983674 2046 2039 2133.3402 2132.2998 2132.2998 2130.7392 2130.9993 2131.2594 2127.3579 2131.7796 2132.82 2134.9008 2132.5599 2134.3806 2161.431 2511.7857 
14:35:25.991672 2046 2039 2131.7796 2132.0397 2130.7392 2132.82 2131.7796 2135.6811 2129.1786 2133.3402 2130.7392 2134.3806 2129.6988 2133.0801 2161.6911 2507.364 
14:35:25.999676 2045 2039 2130.9993 2131.2594 2131.5195 2130.4791 2131.5195 2133.3402 2130.7392 2132.82 2132.82 2134.6407 2130.7392 2134.9008 2161.431 2506.0635 
14:35:26.007672 2045 2038 2131.5195 2131.5195 2132.2998 2129.1786 2130.219 2128.1382 2129.1786 2131.2594 2134.6407 2135.421 2131.7796 2130.9993 2160.1305 2508.1443 
14:35:26.015675 2044 2037 2132.2998 2130.9993 2133.0801 2131.2594 2131.2594 2129.4387 2130.219 2133.0801 2134.1205 2135.6811 2132.2998 2129.9589 2160.3906 2505.0231 
14:35:26.023690 2045 2037 2133.6003 2131.2594 2132.5599 2130.4791 2132.5599 2134.9008 2130.219 2133.0801 2133.3402 2135.6811 2132.2998 2133.0801 2160.9108 2502.9423 
14:35:26.031672 2046 2038 2131.2594 2133.6003 2132.82 2130.9993 2133.8604 2135.1609 2130.7392 2132.2998 2132.0397 2135.6811 2133.8604 2133.8604 2160.3906 2502.162 
14:35:26.039672 2045 2037 2133.8604 2133.0801 2132.5599 2129.9589 2130.9993 2132.2998 2127.0978 2132.2998 2130.7392 2134.6407 2134.9008 2135.9412 2162.2113 2507.6241 
14:35:26.047672 2047 2038 2133.6003 2130.9993 2132.82 2132.0397 2130.7392 2128.3983 2129.6988 2134.1205 2132.5599 2134.1205 2132.2998 2135.1609 2162.2113 2505.2832 
14:35:26.054673 2044 2038 2134.1205 2131.2594 2130.7392 2130.4791 2129.9589 2127.8781 2130.219 2133.0801 2134.1205 2134.1205 2130.7392 2134.9008 2164.032 2509.7049 
14:35:26.062672 2044 2037 2132.0397 2132.0397 2130.9993 2130.4791 2131.5195 2131.2594 2132.82 2132.2998 2132.82 2135.1609 2132.82 2133.8604 2160.9108 2505.0231 
14:35:26.070635 2044 2037 2135.421 2130.4791 2132.5599 2128.9185 2130.9993 2135.6811 2129.4387 2131.5195 2131.5195 2136.9816 2134.3806 2134.6407 2159.6103 2506.0635 
14:35:26.078674 2045 2038 2132.82 2130.4791 2134.1205 2132.0397 2133.6003 2134.1205 2131.7796 2132.5599 2133.3402 2136.2013 2132.82 2133.0801 2158.83 2501.6418 
14:35:26.086669 2048 2039 2132.0397 2131.2594 2131.7796 2129.6988 2132.82 2127.618 2129.9589 2131.7796 2133.0801 2134.6407 2133.6003 2138.5422 2161.1709 2506.5837 
14:35:26.094672 2048 2038 2129.9589 2132.2998 2130.7392 2129.6988 2132.0397 2123.4564 2131.5195 2132.0397 2131.7796 2134.9008 2132.5599 2137.5018 2159.6103 2503.9827 
14:35:26.102652 2046 2037 2130.9993 2134.1205 2130.7392 2131.2594 2130.219 2127.3579 2128.6584 2132.82 2132.2998 2136.2013 2130.4791 2133.0801 2160.1305 2507.1039 
14:35:26.110681 2043 2036 2130.7392 2135.6811 2132.2998 2133.0801 2133.6003 2136.2013 2131.5195 2132.82 2134.1205 2134.6407 2129.4387 2132.5599 2158.83 2507.1039 
14:35:26.117685 2044 2037 2132.0397 2133.3402 2131.7796 2130.4791 2132.0397 2136.9816 2130.219 2132.2998 2133.0801 2133.6003 2131.5195 2135.9412 2158.0497 2507.8842 
14:35:26.125626 2046 2039 2132.2998 2131.2594 2130.9993 2130.219 2129.9589 2130.4791 2128.3983 2132.82 2131.7796 2135.1609 2131.7796 2131.7796 2158.3098 2505.0231 
14:35:26.133686 2046 2039 2132.82 2130.4791 2131.5195 2129.4387 2130.219 2125.7973 2127.618 2133.3402 2131.2594 2135.421 2133.0801 2133.8604 2160.3906 2506.0635 
14:35:26.141681 2046 2038 2131.2594 2131.2594 2131.7796 2129.9589 2132.2998 2126.0574 2130.219 2133.0801 2131.5195 2134.1205 2132.0397 2136.9816 2160.1305 2505.8034 
14:35:26.149681 2043 2038 2131.2594 2132.0397 2131.5195 2132.2998 2132.0397 2128.6584 2129.1786 2133.0801 2131.7796 2134.1205 2132.82 2137.2417 2160.1305 2505.0231 
14:35:26.157684 2043 2036 2132.5599 2132.0397 2131.5195 2131.7796 2131.7796 2134.9008 2126.3175 2133.3402 2131.2594 2134.9008 2134.9008 2136.7215 2159.6103 2505.0231 
14:35:26.165686 2044 2036 2130.9993 2132.0397 2132.82 2132.0397 2133.3402 2136.7215 2130.4791 2134.6407 2131.7796 2134.6407 2132.5599 2137.2417 2160.1305 2505.2832 
14:35:26.173682 2045 2038 2132.82 2133.0801 2131.7796 2131.5195 2131.7796 2131.2594 2131.7796 2133.0801 2132.82 2135.1609 2129.1786 2136.4614 2162.7315 2509.1847 
14:35:26.180706 2046 2039 2133.6003 2133.0801 2132.0397 2131.2594 2130.7392 2125.017 2132.0397 2132.0397 2133.6003 2135.6811 2130.9993 2133.8604 2161.6911 2503.4625 
14:35:26.188702 2046 2038 2135.1609 2131.2594 2132.82 2127.618 2129.9589 2126.5776 2129.4387 2132.0397 2132.5599 2135.6811 2134.3806 2136.7215 2162.7315 2506.5837 
14:35:26.196714 2046 2038 2132.5599 2130.7392 2133.0801 2129.6988 2132.2998 2130.9993 2130.9993 2132.82 2133.0801 2135.1609 2135.421 2137.5018 2162.7315 2504.763 
14:35:26.204696 2045 2037 2134.3806 2132.2998 2130.7392 2129.1786 2132.2998 2134.3806 2127.618 2132.0397 2135.9412 2134.3806 2134.3806 2137.7619 2162.9916 2507.1039 
14:35:26.212707 2043 2036 2132.0397 2133.8604 2131.5195 2129.9589 2132.82 2134.6407 2130.219 2132.5599 2135.1609 2135.421 2132.0397 2136.4614 2161.1709 2503.2024 
14:35:26.220701 2044 2036 2133.6003 2134.9008 2131.7796 2127.618 2129.6988 2131.7796 2126.3175 2131.7796 2130.7392 2136.4614 2132.82 2138.2821 2162.4714 2509.7049 
14:35:26.228726 2045 2038 2131.7796 2133.8604 2132.0397 2130.4791 2132.0397 2127.8781 2128.9185 2132.0397 2131.7796 2134.9008 2132.82 2135.1609 2159.6103 2505.8034 
14:35:26.236705 2046 2039 2131.7796 2130.7392 2130.9993 2131.2594 2132.0397 2126.3175 2128.6584 2132.5599 2134.6407 2134.9008 2130.4791 2132.82 2158.0497 2506.3236 
14:35:26.244707 2046 2039 2130.4791 2132.0397 2130.9993 2132.2998 2133.0801 2127.8781 2130.7392 2132.0397 2132.0397 2135.6811 2129.4387 2130.7392 2158.0497 2503.9827 
14:35:26.251686 2046 2039 2132.2998 2131.7796 2131.7796 2129.4387 2132.0397 2132.0397 2128.3983 2130.9993 2132.0397 2134.3806 2134.6407 2134.6407 2159.6103 2505.8034 
14:35:26.259684 2042 2037 2131.2594 2129.4387 2132.5599 2129.1786 2133.0801 2136.2013 2129.4387 2132.2998 2134.3806 2133.6003 2133.8604 2135.1609 2158.3098 2503.4625 
14:35:26.267718 2043 2038 2134.3806 2130.219 2131.7796 2130.4791 2131.5195 2135.1609 2127.3579 2132.5599 2132.82 2134.9008 2132.0397 2137.2417 2161.1709 2505.8034 
14:35:26.275627 2046 2039 2135.1609 2133.8604 2131.5195 2131.2594 2130.9993 2130.7392 2127.618 2131.5195 2131.2594 2134.9008 2132.2998 2136.7215 2162.4714 2503.7226 
14:35:26.283687 2047 2039 2132.2998 2132.2998 2132.2998 2130.9993 2131.5195 2126.8377 2130.219 2132.5599 2132.82 2134.3806 2132.0397 2136.9816 2162.2113 2506.0635 
14:35:26.291680 2047 2040 2131.2594 2130.219 2131.2594 2130.7392 2132.0397 2126.5776 2131.2594 2132.2998 2133.3402 2135.421 2131.5195 2136.9816 2161.9512 2508.4044 
14:35:26.299651 2044 2039 2131.7796 2132.0397 2132.2998 2131.5195 2130.219 2129.9589 2130.9993 2131.2594 2133.0801 2136.7215 2132.0397 2133.8604 2160.3906 2505.8034 
14:35:26.307643 2044 2038 2133.0801 2132.82 2133.3402 2130.7392 2129.4387 2135.6811 2131.7796 2130.4791 2132.2998 2135.421 2131.7796 2131.2594 2160.1305 2506.5837 
14:35:26.314677 2044 2037 2132.5599 2130.7392 2133.8604 2132.0397 2133.3402 2136.2013 2133.3402 2131.7796 2132.2998 2134.6407 2133.6003 2132.5599 2161.1709 2502.6822 
14:35:26.322686 2045 2037 2134.1205 2130.9993 2132.2998 2129.9589 2134.1205 2133.6003 2129.1786 2130.9993 2133.0801 2135.6811 2134.9008 2136.4614 2161.1709 2504.763 
14:35:26.330685 2046 2038 2130.7392 2132.2998 2132.2998 2130.219 2133.3402 2128.1382 2130.219 2131.5195 2133.3402 2135.6811 2132.2998 2135.6811 2159.0901 2505.2832 
14:35:26.338680 2047 2038 2131.2594 2133.6003 2131.5195 2128.6584 2130.4791 2123.7165 2128.9185 2132.2998 2132.2998 2134.9008 2130.9993 2136.4614 2162.4714 2511.0054 
14:35:26.346686 2046 2038 2130.219 2134.6407 2132.5599 2131.2594 2131.2594 2126.8377 2130.9993 2133.6003 2132.2998 2134.9008 2132.2998 2134.9008 2161.9512 2506.3236 
14:35:26.354681 2044 2039 2131.5195 2133.8604 2133.0801 2130.7392 2130.4791 2134.1205 2127.3579 2132.82 2133.0801 2134.9008 2131.5195 2132.82 2159.6103 2509.965 
14:35:26.362664 2044 2037 2129.6988 2133.0801 2133.8604 2132.82 2133.0801 2136.7215 2129.9589 2132.5599 2134.6407 2135.421 2129.9589 2130.4791 2158.5699 2506.5837 
14:35:26.370684 2046 2038 2131.7796 2132.2998 2130.4791 2131.2594 2131.5195 2134.3806 2128.9185 2132.0397 2133.6003 2136.9816 2132.0397 2132.5599 2160.1305 2505.5433 
14:35:26.378685 2044 2039 2129.6988 2132.82 2130.4791 2133.3402 2132.82 2128.1382 2132.0397 2133.0801 2133.0801 2136.2013 2133.0801 2131.2594 2157.5295 2499.561 
14:35:26.385681 2047 2038 2131.7796 2131.7796 2134.1205 2132.2998 2132.2998 2123.9766 2128.9185 2132.82 2133.3402 2134.9008 2134.9008 2135.9412 2158.83 2502.6822 
14:35:26.393680 2045 2038 2131.7796 2132.0397 2134.1205 2131.5195 2131.2594 2127.0978 2129.9589 2132.0397 2133.0801 2135.6811 2132.5599 2135.1609 2159.8704 2501.3817 
14:35:26.401678 2045 2038 2133.3402 2132.82 2130.7392 2129.6988 2129.1786 2132.5599 2129.4387 2132.0397 2132.2998 2136.2013 2131.7796 2134.9008 2161.6911 2507.1039 
14:35:26.409688 2044 2038 2133.0801 2132.82 2132.2998 2131.2594 2130.9993 2135.421 2130.4791 2132.2998 2132.5599 2134.1205 2133.3402 2135.421 2160.6507 2506.5837 
14:35:26.417686 2043 2038 2132.0397 2131.7796 2134.1205 2130.7392 2130.219 2134.6407 2129.6988 2131.5195 2133.6003 2134.3806 2134.1205 2136.4614 2160.9108 2507.364 
14:35:26.425675 2044 2037 2131.5195 2132.5599 2132.82 2129.6988 2129.6988 2130.7392 2130.7392 2131.7796 2133.6003 2134.9008 2131.5195 2133.8604 2160.6507 2507.8842 
14:35:26.433684 2046 2039 2132.5599 2133.6003 2132.2998 2130.4791 2132.0397 2125.2771 2129.4387 2133.8604 2133.3402 2134.3806 2133.0801 2134.6407 2159.3502 2504.763 
14:35:26.441688 2046 2038 2133.3402 2133.0801 2131.5195 2131.5195 2134.9008 2128.3983 2129.9589 2133.3402 2132.5599 2135.1609 2134.3806 2136.7215 2159.8704 2503.4625 
14:35:26.448747 2043 2037 2130.7392 2132.82 2131.5195 2133.0801 2132.0397 2133.0801 2130.9993 2132.5599 2133.3402 2135.9412 2132.5599 2135.6811 2160.1305 2503.4625 
14:35:26.456714 2043 2037 2131.5195 2133.6003 2132.0397 2132.2998 2129.1786 2133.3402 2129.1786 2132.5599 2133.8604 2135.6811 2131.5195 2134.3806 2160.1305 2506.8438 
14:35:26.464716 2046 2036 2130.219 2133.0801 2132.0397 2132.5599 2131.7796 2131.2594 2131.5195 2133.8604 2133.3402 2136.4614 2132.2998 2132.2998 2159.6103 2505.0231 
14:35:26.472704 2045 2036 2131.2594 2133.3402 2130.9993 2129.6988 2130.4791 2129.4387 2128.1382 2132.2998 2133.3402 2136.9816 2130.9993 2133.0801 2160.9108 2511.7857 
14:35:26.480706 2046 2038 2130.4791 2133.3402 2132.82 2131.5195 2131.2594 2127.618 2129.4387 2131.7796 2133.6003 2135.6811 2131.2594 2134.9008 2160.1305 2508.4044 
14:35:26.488700 2045 2038 2131.7796 2130.9993 2131.2594 2130.219 2131.5195 2128.3983 2128.9185 2132.0397 2131.5195 2136.2013 2133.0801 2133.3402 2159.6103 2505.8034 
14:35:26.496702 2047 2038 2130.7392 2131.2594 2131.7796 2130.9993 2132.82 2129.9589 2130.219 2133.3402 2131.2594 2136.7215 2133.8604 2131.2594 2158.3098 2501.6418 
14:35:26.504629 2045 2038 2134.1205 2130.9993 2133.0801 2129.9589 2129.9589 2133.0801 2125.5372 2133.0801 2132.2998 2134.6407 2136.9816 2138.2821 2160.1305 2506.0635 
14:35:26.511676 2046 2039 2130.4791 2130.9993 2132.82 2132.2998 2132.2998 2133.8604 2129.9589 2134.6407 2132.5599 2134.1205 2135.9412 2138.2821 2160.9108 2502.4221 
14:35:26.519680 2045 2039 2130.4791 2131.5195 2130.7392 2130.4791 2132.0397 2129.9589 2128.6584 2133.8604 2132.0397 2135.9412 2133.8604 2138.2821 2161.9512 2507.6241 
14:35:26.527682 2044 2039 2131.2594 2132.5599 2132.82 2130.7392 2131.5195 2128.3983 2130.4791 2132.0397 2133.0801 2135.6811 2132.5599 2135.6811 2158.5699 2504.763 
14:35:26.535681 2044 2037 2133.6003 2131.2594 2133.0801 2129.9589 2130.7392 2133.0801 2131.7796 2132.5599 2134.6407 2134.3806 2132.2998 2134.3806 2160.3906 2508.9246 
14:35:26.543687 2046 2038 2131.2594 2131.7796 2131.2594 2129.9589 2132.82 2134.9008 2134.1205 2133.0801 2134.1205 2134.6407 2132.2998 2133.6003 2161.431 2508.1443 
14:35:26.551671 2044 2039 2132.2998 2132.2998 2131.5195 2129.1786 2131.7796 2132.0397 2129.9589 2131.5195 2131.5195 2135.1609 2136.2013 2136.9816 2160.6507 2504.5029 
14:35:26.559683 2043 2039 2132.2998 2131.7796 2132.82 2130.7392 2132.2998 2131.5195 2129.9589 2132.0397 2131.2594 2135.421 2135.1609 2136.7215 2159.3502 2501.1216 
14:35:26.567684 2043 2037 2131.7796 2132.0397 2132.5599 2130.4791 2132.82 2130.7392 2127.8781 2132.82 2132.82 2135.1609 2131.7796 2138.022 2161.6911 2506.3236 
14:35:26.574704 2044 2038 2131.5195 2133.6003 2131.5195 2129.4387 2133.0801 2130.7392 2128.6584 2130.9993 2132.2998 2134.9008 2130.9993 2138.022 2162.9916 2507.6241 
14:35:26.582678 2045 2038 2130.7392 2132.5599 2132.82 2130.4791 2131.5195 2130.7392 2131.5195 2132.0397 2133.6003 2134.9008 2131.7796 2135.1609 2161.6911 2506.5837 
14:35:26.590680 2048 2038 2132.0397 2131.7796 2132.5599 2132.0397 2131.2594 2130.7392 2130.7392 2131.5195 2134.3806 2135.1609 2129.6988 2132.5599 2160.6507 2510.4852 
14:35:26.598682 2047 2039 2132.0397 2131.5195 2132.5599 2133.0801 2132.2998 2130.7392 2131.2594 2129.9589 2133.0801 2135.9412 2129.6988 2131.2594 2158.5699 2505.5433 
14:35:26.606684 2046 2038 2132.5599 2131.2594 2133.0801 2130.219 2130.4791 2129.9589 2129.9589 2131.5195 2132.5599 2135.421 2130.4791 2130.9993 2158.0497 2503.4625 
14:35:26.614683 2045 2037 2130.9993 2131.2594 2133.3402 2130.219 2131.5195 2130.219 2130.7392 2135.1609 2133.3402 2134.9008 2132.0397 2133.8604 2158.5699 2503.7226 
14:35:26.622684 2043 2036 2134.1205 2131.5195 2131.7796 2129.1786 2130.7392 2133.6003 2126.0574 2133.6003 2132.0397 2135.6811 2134.6407 2136.9816 2159.0901 2506.8438 
14:35:26.630681 2044 2038 2130.9993 2132.82 2132.5599 2131.2594 2130.7392 2133.6003 2127.8781 2133.6003 2131.7796 2135.421 2133.6003 2134.6407 2158.0497 2502.9423 
14:35:26.637684 2045 2038 2132.2998 2133.3402 2131.2594 2129.6988 2128.9185 2129.4387 2127.3579 2134.1205 2132.5599 2133.8604 2133.6003 2137.5018 2161.6911 2510.2251 
14:35:26.645683 2047 2039 2132.5599 2133.3402 2132.0397 2132.82 2131.2594 2127.618 2131.2594 2134.1205 2132.5599 2134.9008 2134.1205 2136.2013 2160.9108 2505.2832 
14:35:26.653682 2045 2037 2133.0801 2131.7796 2133.0801 2131.2594 2130.4791 2130.9993 2128.9185 2132.5599 2132.2998 2136.4614 2133.6003 2134.1205 2159.8704 2506.5837 
14:35:26.661680 2044 2038 2128.6584 2131.7796 2133.6003 2131.2594 2131.7796 2133.3402 2132.2998 2132.2998 2132.82 2135.421 2132.0397 2132.5599 2158.0497 2504.2428 
14:35:26.669618 2045 2037 2131.5195 2130.7392 2132.0397 2130.9993 2132.0397 2134.3806 2132.0397 2132.2998 2133.3402 2134.9008 2133.6003 2137.2417 2159.3502 2507.1039 
14:35:26.677682 2044 2037 2132.82 2131.7796 2133.0801 2133.3402 2134.3806 2135.6811 2133.3402 2132.2998 2134.3806 2136.2013 2133.3402 2136.7215 2159.6103 2502.162 
14:35:26.685681 2044 2038 2133.6003 2133.6003 2131.7796 2130.219 2132.5599 2132.2998 2127.618 2132.0397 2133.6003 2136.7215 2134.6407 2137.7619 2162.7315 2506.0635 
14:35:26.693678 2044 2038 2132.5599 2133.8604 2130.4791 2129.1786 2131.7796 2126.8377 2127.618 2133.3402 2131.5195 2135.6811 2134.6407 2136.9816 2161.9512 2508.6645 
14:35:26.708742 2046 2039 2131.2594 2132.2998 2132.0397 2130.7392 2130.9993 2129.1786 2129.1786 2133.0801 2134.3806 2136.7215 2128.3983 2131.7796 2160.1305 2510.2251 
14:35:26.716716 2045 2037 2132.82 2132.0397 2131.2594 2131.2594 2131.5195 2133.3402 2128.1382 2133.3402 2134.3806 2136.4614 2132.0397 2133.8604 2160.3906 2505.8034 
14:35:26.724713 2045 2038 2133.3402 2131.5195 2130.9993 2130.9993 2130.4791 2135.6811 2129.9589 2133.6003 2133.6003 2135.9412 2131.5195 2133.6003 2159.6103 2506.5837 
14:35:26.732699 2044 2038 2131.7796 2131.5195 2132.5599 2132.2998 2131.5195 2134.3806 2131.5195 2133.0801 2133.3402 2134.9008 2131.2594 2134.1205 2159.8704 2506.8438 
14:35:26.740702 2047 2038 2132.0397 2132.0397 2132.2998 2131.7796 2133.3402 2130.4791 2129.4387 2132.2998 2133.0801 2133.6003 2133.0801 2134.9008 2159.3502 2503.9827 
14:35:26.748701 2046 2038 2130.4791 2132.2998 2131.5195 2132.2998 2133.6003 2126.0574 2132.2998 2134.1205 2133.3402 2136.4614 2132.2998 2134.6407 2159.0901 2500.3413 
14:35:26.756704 2046 2038 2133.6003 2131.7796 2130.219 2130.7392 2130.4791 2126.8377 2130.7392 2133.3402 2132.5599 2138.5422 2132.82 2138.022 2162.2113 2506.8438 
14:35:26.764699 2045 2038 2132.5599 2131.2594 2132.2998 2132.82 2130.219 2131.2594 2129.9589 2132.2998 2132.82 2135.9412 2133.8604 2136.4614 2160.9108 2505.5433 
14:35:26.771684 2045 2037 2132.0397 2131.5195 2132.82 2130.219 2130.4791 2135.1609 2130.219 2130.9993 2133.3402 2134.6407 2131.5195 2133.3402 2160.9108 2508.6645 
14:35:26.779682 2043 2038 2130.219 2131.2594 2133.3402 2131.2594 2131.2594 2135.1609 2135.6811 2132.2998 2132.82 2135.9412 2130.9993 2132.5599 2160.1305 2504.5029 
14:35:26.787682 2044 2037 2133.6003 2130.4791 2130.7392 2130.7392 2129.4387 2134.3806 2130.7392 2132.0397 2132.5599 2135.9412 2134.3806 2136.4614 2160.1305 2506.8438 
14:35:26.795681 2045 2039 2132.0397 2131.2594 2131.7796 2131.2594 2132.2998 2128.9185 2130.9993 2132.0397 2134.9008 2136.2013 2133.3402 2135.421 2159.3502 2502.162 
14:35:26.803682 2046 2040 2133.3402 2133.0801 2131.5195 2129.1786 2131.7796 2125.017 2130.219 2132.2998 2134.9008 2136.2013 2132.5599 2138.5422 2163.2517 2505.0231 
14:35:26.811675 2045 2039 2130.9993 2134.6407 2130.9993 2132.2998 2131.5195 2129.6988 2133.0801 2133.0801 2132.82 2134.3806 2132.82 2136.9816 2161.9512 2502.6822 
14:35:26.819685 2043 2037 2129.9589 2133.8604 2131.2594 2132.0397 2128.1382 2133.8604 2128.1382 2132.5599 2132.82 2134.9008 2131.5195 2133.6003 2159.8704 2508.4044 
14:35:26.827683 2043 2036 2128.6584 2133.6003 2132.2998 2131.2594 2130.4791 2133.6003 2130.219 2132.0397 2134.1205 2135.9412 2129.4387 2132.0397 2159.8704 2508.4044 
14:35:26.835669 2045 2036 2131.2594 2132.82 2132.82 2129.6988 2130.9993 2132.2998 2130.4791 2132.82 2133.8604 2134.6407 2131.5195 2134.1205 2160.9108 2506.8438 
14:35:26.842606 2045 2039 2130.9993 2132.0397 2133.0801 2131.2594 2131.2594 2129.1786 2128.9185 2132.82 2132.5599 2134.3806 2131.5195 2131.7796 2159.0901 2503.9827 
14:35:26.850667 2045 2041 2131.5195 2130.7392 2132.82 2132.5599 2131.2594 2125.2771 2127.3579 2131.2594 2132.5599 2136.2013 2133.8604 2135.421 2159.0901 2506.0635 
14:35:26.858670 2045 2038 2130.7392 2132.5599 2131.7796 2131.2594 2131.7796 2127.8781 2130.219 2130.7392 2132.5599 2135.6811 2134.3806 2135.6811 2159.8704 2504.5029 
14:35:26.866667 2044 2037 2129.6988 2133.8604 2130.9993 2129.1786 2132.2998 2132.2998 2128.9185 2132.5599 2131.5195 2134.6407 2134.1205 2134.3806 2161.431 2505.2832 
14:35:26.874670 2043 2037 2131.5195 2132.82 2130.7392 2129.9589 2131.2594 2133.3402 2125.5372 2133.3402 2130.9993 2134.6407 2135.1609 2135.421 2160.3906 2506.8438 
14:35:26.882668 2042 2037 2130.7392 2131.7796 2132.5599 2134.3806 2131.2594 2132.0397 2130.7392 2133.0801 2132.82 2135.1609 2134.9008 2135.421 2161.1709 2504.763 
14:35:26.890670 2043 2037 2130.9993 2132.0397 2133.3402 2131.7796 2130.7392 2130.9993 2132.82 2131.2594 2132.82 2135.6811 2131.7796 2133.3402 2163.7719 2508.1443 
14:35:26.898666 2047 2040 2130.4791 2130.9993 2132.82 2129.9589 2131.5195 2127.618 2131.2594 2131.7796 2133.0801 2135.421 2130.9993 2133.0801 2159.3502 2504.763 
14:35:26.905629 2048 2040 2133.3402 2129.6988 2131.5195 2128.9185 2130.7392 2127.3579 2129.1786 2132.2998 2134.3806 2135.1609 2133.0801 2137.2417 2157.5295 2505.5433 
14:35:26.913666 2045 2039 2132.2998 2130.9993 2132.0397 2131.2594 2132.2998 2130.219 2134.1205 2132.82 2133.8604 2134.6407 2134.6407 2137.7619 2159.6103 2501.6418 
14:35:26.921669 2043 2038 2133.6003 2132.82 2131.2594 2130.7392 2132.0397 2133.8604 2130.219 2131.7796 2133.6003 2135.1609 2136.4614 2138.2821 2161.6911 2507.364 
14:35:26.929667 2043 2036 2130.9993 2132.5599 2132.0397 2132.5599 2132.5599 2135.1609 2129.9589 2132.2998 2134.6407 2136.2013 2133.8604 2134.9008 2160.3906 2505.8034 
14:35:26.937668 2044 2037 2131.7796 2132.0397 2131.5195 2131.2594 2129.4387 2132.2998 2126.8377 2132.5599 2132.5599 2135.421 2130.7392 2134.3806 2162.7315 2509.965 
14:35:26.945665 2046 2039 2129.1786 2132.82 2131.7796 2133.0801 2131.5195 2127.618 2130.7392 2132.82 2132.2998 2134.3806 2130.9993 2133.3402 2160.9108 2505.2832 
14:35:26.953667 2046 2039 2129.6988 2131.7796 2131.2594 2131.7796 2131.5195 2125.017 2129.9589 2131.5195 2134.3806 2135.9412 2130.7392 2132.5599 2159.0901 2505.8034 
14:35:26.961661 2047 2037 2128.6584 2131.5195 2130.9993 2131.7796 2132.2998 2128.3983 2131.7796 2130.9993 2133.6003 2135.9412 2128.3983 2130.219 2158.5699 2503.4625 
14:35:26.968727 2044 2038 2132.2998 2130.9993 2130.9993 2129.6988 2130.7392 2134.3806 2129.6988 2131.2594 2132.82 2133.8604 2133.0801 2135.1609 2161.1709 2507.364 
14:35:26.976697 2043 2037 2132.2998 2130.7392 2132.0397 2131.2594 2131.7796 2136.4614 2130.7392 2132.5599 2134.1205 2134.9008 2135.1609 2135.421 2161.6911 2504.763 
14:35:26.984699 2043 2038 2132.2998 2130.9993 2130.9993 2131.2594 2130.9993 2133.0801 2129.1786 2132.5599 2133.3402 2136.4614 2133.0801 2135.1609 2162.9916 2504.763 
14:35:26.992676 2044 2040 2131.5195 2132.2998 2130.7392 2130.4791 2130.9993 2129.1786 2129.9589 2132.2998 2132.0397 2134.9008 2131.7796 2135.421 2161.431 2503.9827 
14:35:27.000686 2047 2038 2131.7796 2131.5195 2132.5599 2130.219 2130.7392 2127.3579 2130.9993 2133.0801 2133.3402 2133.0801 2132.82 2137.2417 2161.6911 2508.1443 
14:35:27.008688 2046 2038 2132.2998 2130.7392 2132.5599 2129.6988 2129.9589 2128.1382 2131.5195 2132.82 2133.3402 2134.3806 2132.2998 2136.7215 2161.9512 2508.9246 
14:35:27.016691 2044 2039 2130.4791 2129.6988 2132.0397 2130.7392 2128.9185 2131.7796 2131.7796 2131.2594 2132.5599 2136.9816 2132.5599 2133.0801 2160.1305 2505.5433 
14:35:27.024685 2045 2036 2131.2594 2129.9589 2131.5195 2130.9993 2129.6988 2138.2821 2133.0801 2130.219 2132.2998 2136.7215 2132.0397 2131.5195 2159.3502 2506.8438 
14:35:27.032687 2045 2037 2131.5195 2132.2998 2132.2998 2132.82 2133.0801 2137.2417 2133.3402 2131.7796 2132.5599 2135.1609 2131.7796 2133.3402 2158.83 2502.6822 
14:35:27.039663 2046 2039 2133.8604 2133.3402 2132.0397 2130.219 2133.8604 2130.9993 2128.6584 2132.2998 2133.8604 2134.3806 2133.3402 2136.4614 2160.3906 2505.8034 
14:35:27.047667 2045 2039 2132.5599 2132.2998 2132.2998 2130.4791 2132.2998 2126.3175 2130.7392 2132.5599 2134.1205 2134.1205 2133.3402 2135.9412 2160.1305 2506.8438 
14:35:27.055663 2043 2039 2133.3402 2133.6003 2130.7392 2129.6988 2129.1786 2126.5776 2128.3983 2131.7796 2131.2594 2135.421 2130.9993 2136.7215 2161.1709 2511.0054 
14:35:27.063666 2044 2038 2131.5195 2135.1609 2132.0397 2131.7796 2132.0397 2129.6988 2130.9993 2132.0397 2131.5195 2136.9816 2130.219 2134.6407 2160.1305 2506.0635 
14:35:27.071609 2045 2038 2132.82 2132.5599 2132.5599 2129.9589 2130.9993 2133.8604 2129.6988 2132.2998 2134.3806 2135.6811 2130.4791 2132.5599 2160.3906 2510.2251 
14:35:27.079668 2046 2037 2130.4791 2130.4791 2132.5599 2132.2998 2131.2594 2133.0801 2132.5599 2133.6003 2134.9008 2134.6407 2130.7392 2132.5599 2159.6103 2505.2832 
14:35:27.086666 2043 2037 2132.82 2130.9993 2131.7796 2131.2594 2130.7392 2129.6988 2128.9185 2133.0801 2133.8604 2135.6811 2133.6003 2134.9008 2159.6103 2504.2428 
14:35:27.094665 2045 2036 2131.2594 2132.82 2133.6003 2132.0397 2132.5599 2127.8781 2130.7392 2132.5599 2134.6407 2135.6811 2132.82 2132.0397 2158.0497 2502.4221 
14:35:27.102664 2045 2038 2132.2998 2132.0397 2132.82 2129.4387 2131.5195 2128.6584 2129.4387 2133.0801 2134.3806 2135.1609 2133.8604 2136.7215 2161.431 2508.1443 
14:35:27.110663 2050 2040 2130.7392 2131.7796 2132.0397 2131.2594 2132.82 2130.9993 2132.82 2132.5599 2133.3402 2135.9412 2132.5599 2136.2013 2161.1709 2505.0231 
14:35:27.118662 2045 2040 2132.0397 2131.5195 2132.82 2132.0397 2130.9993 2133.0801 2131.7796 2130.4791 2133.6003 2135.6811 2131.5195 2135.1609 2161.1709 2508.9246 
14:35:27.126660 2043 2038 2131.2594 2131.2594 2133.8604 2132.5599 2129.6988 2131.5195 2130.7392 2131.7796 2132.82 2134.9008 2133.6003 2135.6811 2161.431 2508.1443 
14:35:27.134665 2047 2036 2132.5599 2131.5195 2131.7796 2132.2998 2130.219 2130.4791 2129.9589 2133.6003 2131.7796 2135.421 2134.9008 2135.6811 2160.6507 2507.8842 
14:35:27.142666 2046 2037 2133.0801 2132.2998 2130.219 2132.2998 2133.0801 2134.3806 2132.82 2133.6003 2132.0397 2135.421 2131.5195 2131.2594 2157.5295 2506.0635 
14:35:27.149667 2045 2038 2131.7796 2131.2594 2130.7392 2131.5195 2133.0801 2134.6407 2131.2594 2133.6003 2134.1205 2134.6407 2133.8604 2134.1205 2159.6103 2503.4625 
14:35:27.158666 2046 2038 2131.7796 2131.2594 2130.9993 2130.4791 2131.7796 2131.5195 2129.6988 2133.0801 2133.6003 2134.9008 2135.9412 2137.7619 2163.2517 2504.763 
14:35:27.165667 2048 2039 2130.9993 2132.2998 2132.2998 2131.2594 2132.2998 2127.618 2130.7392 2133.6003 2132.5599 2134.1205 2131.7796 2133.8604 2160.1305 2505.0231 
14:35:27.173666 2046 2039 2131.5195 2131.5195 2131.5195 2129.4387 2131.7796 2127.3579 2130.219 2133.0801 2133.6003 2133.6003 2128.6584 2133.0801 2158.83 2507.1039 
14:35:27.181662 2044 2039 2130.4791 2130.9993 2132.5599 2129.4387 2131.7796 2129.1786 2131.7796 2131.5195 2134.3806 2135.9412 2130.219 2134.6407 2159.8704 2504.763 
14:35:27.189665 2043 2038 2131.5195 2132.0397 2132.82 2129.6988 2130.219 2132.5599 2127.8781 2130.7392 2133.0801 2137.2417 2130.219 2134.1205 2161.1709 2511.5256 
14:35:27.197666 2044 2037 2129.6988 2132.0397 2133.0801 2132.82 2131.7796 2133.8604 2130.7392 2133.8604 2134.1205 2136.2013 2130.4791 2133.3402 2159.6103 2508.4044 
14:35:27.205666 2045 2039 2131.7796 2131.7796 2131.7796 2131.2594 2130.219 2131.5195 2129.9589 2132.2998 2134.6407 2136.7215 2132.5599 2135.9412 2158.5699 2506.3236 
14:35:27.213676 2047 2039 2130.219 2132.5599 2132.5599 2133.6003 2131.7796 2127.3579 2129.9589 2130.4791 2133.6003 2137.2417 2133.3402 2134.6407 2157.7896 2502.162 
14:35:27.220736 2046 2038 2131.5195 2130.7392 2132.82 2132.0397 2131.2594 2126.8377 2125.017 2130.9993 2133.6003 2135.421 2135.6811 2137.5018 2161.6911 2507.364 
14:35:27.229676 2046 2039 2129.4387 2131.2594 2134.1205 2132.82 2132.5599 2129.1786 2130.4791 2133.3402 2134.9008 2134.9008 2134.3806 2136.4614 2162.2113 2503.4625 
14:35:27.236711 2045 2037 2130.9993 2132.82 2132.82 2130.9993 2131.2594 2132.5599 2129.6988 2132.2998 2133.8604 2135.421 2132.82 2136.7215 2162.9916 2507.1039 
14:35:27.244686 2044 2037 2129.9589 2132.0397 2131.7796 2132.82 2132.0397 2134.1205 2129.9589 2131.7796 2132.82 2135.6811 2131.7796 2134.3806 2160.9108 2503.2024 
14:35:27.252694 2045 2038 2133.0801 2130.219 2132.2998 2131.2594 2132.2998 2133.0801 2130.4791 2132.5599 2133.8604 2136.9816 2131.2594 2134.3806 2161.431 2507.6241 
14:35:27.260696 2048 2037 2132.82 2130.4791 2132.2998 2130.219 2132.82 2130.219 2134.6407 2133.0801 2135.421 2136.4614 2131.5195 2133.8604 2161.1709 2508.4044 
14:35:27.268698 2046 2038 2132.5599 2129.9589 2130.219 2129.9589 2130.4791 2127.618 2130.9993 2132.5599 2134.6407 2135.421 2134.1205 2136.4614 2161.1709 2506.8438 
14:35:27.276807 2046 2036 2131.5195 2130.4791 2130.7392 2131.7796 2132.82 2130.219 2130.4791 2132.82 2133.3402 2135.9412 2133.3402 2136.4614 2160.9108 2503.7226 
14:35:27.284695 2045 2038 2132.2998 2131.7796 2131.7796 2132.0397 2133.0801 2133.3402 2129.1786 2133.6003 2133.0801 2136.2013 2132.2998 2137.5018 2162.7315 2507.364 
14:35:27.292671 2043 2038 2132.2998 2132.2998 2131.5195 2132.0397 2132.2998 2136.2013 2128.9185 2132.5599 2133.8604 2135.1609 2132.0397 2137.2417 2162.4714 2508.4044 
14:35:27.299653 2043 2039 2130.9993 2132.0397 2132.82 2132.82 2131.2594 2134.9008 2130.219 2132.2998 2133.8604 2135.1609 2131.7796 2134.6407 2160.3906 2506.5837 
14:35:27.307656 2046 2040 2130.4791 2132.2998 2133.0801 2131.2594 2130.7392 2129.4387 2129.4387 2130.9993 2132.82 2135.6811 2130.219 2132.2998 2160.3906 2510.7453 
14:35:27.315653 2046 2039 2130.219 2130.9993 2132.5599 2132.0397 2131.2594 2124.7569 2130.9993 2130.9993 2133.3402 2135.9412 2131.7796 2133.3402 2160.1305 2506.8438 
14:35:27.323655 2047 2038 2131.7796 2131.2594 2131.7796 2132.0397 2130.219 2127.8781 2129.9589 2131.2594 2133.6003 2136.2013 2132.0397 2132.5599 2158.3098 2503.4625 
14:35:27.331659 2045 2037 2130.4791 2132.82 2133.3402 2133.0801 2131.5195 2132.2998 2129.9589 2132.2998 2133.6003 2135.1609 2132.0397 2132.0397 2157.7896 2502.6822 
14:35:27.339654 2042 2037 2131.7796 2132.5599 2133.0801 2130.219 2129.6988 2133.0801 2126.5776 2130.9993 2133.0801 2134.1205 2135.421 2137.7619 2161.6911 2507.1039 
14:35:27.347655 2043 2036 2129.4387 2132.2998 2132.0397 2131.7796 2129.6988 2133.0801 2130.4791 2132.0397 2133.6003 2133.8604 2134.3806 2137.2417 2161.1709 2501.3817 
14:35:27.355655 2047 2036 2131.5195 2132.0397 2130.7392 2130.4791 2128.3983 2131.7796 2128.9185 2132.5599 2133.0801 2134.6407 2131.5195 2136.4614 2161.6911 2506.0635 
14:35:27.363662 2048 2038 2130.9993 2131.5195 2132.5599 2132.2998 2130.9993 2127.618 2132.0397 2133.0801 2132.82 2135.6811 2131.7796 2134.9008 2161.1709 2503.7226 
14:35:27.370654 2047 2040 2132.82 2130.219 2131.5195 2130.219 2129.9589 2128.1382 2132.5599 2133.0801 2133.3402 2135.9412 2133.6003 2136.4614 2161.431 2506.3236 
14:35:27.378658 2044 2039 2130.7392 2131.2594 2130.7392 2130.9993 2130.7392 2131.2594 2134.1205 2133.0801 2135.421 2134.9008 2132.82 2133.6003 2159.0901 2502.4221 
14:35:27.386653 2043 2039 2132.2998 2132.2998 2130.7392 2130.4791 2131.5195 2134.1205 2128.6584 2132.2998 2135.1609 2135.1609 2133.3402 2133.0801 2159.3502 2505.8034 
14:35:27.394659 2044 2037 2131.2594 2133.0801 2131.7796 2132.5599 2133.8604 2137.7619 2130.9993 2132.82 2132.5599 2136.4614 2132.5599 2133.3402 2159.0901 2502.9423 
14:35:27.402657 2045 2037 2132.82 2131.7796 2130.4791 2130.7392 2130.7392 2134.3806 2128.6584 2131.7796 2131.7796 2135.9412 2132.82 2138.2821 2161.9512 2506.5837 
14:35:27.410655 2048 2039 2132.5599 2131.5195 2130.4791 2130.4791 2130.7392 2126.3175 2126.8377 2131.5195 2133.3402 2135.1609 2133.3402 2137.7619 2162.7315 2508.1443 
14:35:27.418655 2047 2040 2130.7392 2131.7796 2132.0397 2129.4387 2130.219 2123.4564 2127.0978 2133.0801 2132.82 2135.6811 2132.0397 2133.8604 2159.8704 2509.1847 
14:35:27.425665 2046 2039 2129.4387 2133.3402 2132.5599 2129.9589 2130.4791 2128.9185 2130.9993 2133.8604 2132.5599 2134.6407 2129.4387 2131.5195 2158.83 2507.6241 
14:35:27.433660 2044 2039 2131.5195 2132.5599 2132.5599 2131.2594 2129.6988 2133.3402 2130.219 2132.5599 2133.6003 2134.3806 2133.0801 2134.6407 2159.6103 2505.8034 
14:35:27.441658 2045 2038 2132.0397 2131.7796 2132.2998 2131.5195 2130.4791 2134.9008 2128.3983 2131.7796 2133.0801 2135.421 2134.1205 2133.6003 2156.4891 2505.0231 
14:35:27.449653 2043 2038 2130.4791 2131.2594 2132.0397 2132.2998 2132.2998 2133.0801 2130.4791 2132.5599 2131.2594 2135.1609 2133.6003 2133.3402 2157.2694 2503.4625 
14:35:27.457659 2044 2038 2132.0397 2131.2594 2131.5195 2130.4791 2132.5599 2129.4387 2129.4387 2133.0801 2130.7392 2134.6407 2133.3402 2134.6407 2160.1305 2503.7226 
14:35:27.465656 2045 2039 2131.2594 2132.0397 2132.82 2130.7392 2132.2998 2127.0978 2131.2594 2133.6003 2132.5599 2135.1609 2132.82 2135.421 2160.3906 2502.9423 
14:35:27.473660 2046 2038 2133.0801 2132.2998 2132.2998 2129.9589 2129.9589 2129.9589 2130.7392 2131.7796 2132.5599 2134.6407 2133.6003 2139.0624 2162.4714 2508.9246 
14:35:27.481655 2045 2038 2131.5195 2132.0397 2131.5195 2132.2998 2130.7392 2131.5195 2132.5599 2132.2998 2132.2998 2134.3806 2132.82 2136.2013 2161.431 2505.5433 
14:35:27.489654 2044 2037 2131.7796 2131.7796 2131.2594 2131.5195 2131.5195 2132.5599 2132.2998 2132.82 2132.82 2135.9412 2130.4791 2132.0397 2159.8704 2507.8842 
14:35:27.496734 2043 2037 2129.4387 2130.4791 2132.82 2133.0801 2133.3402 2133.3402 2133.8604 2132.82 2133.0801 2136.2013 2130.4791 2132.2998 2158.0497 2502.9423 
14:35:27.504619 2044 2037 2132.82 2128.9185 2131.2594 2129.9589 2131.2594 2132.5599 2128.9185 2131.5195 2133.6003 2135.6811 2134.1205 2138.5422 2160.6507 2505.8034 
14:35:27.512551 2046 2039 2132.0397 2131.5195 2130.7392 2130.7392 2132.2998 2129.4387 2131.5195 2132.82 2135.421 2135.421 2133.6003 2137.2417 2159.3502 2502.6822 
14:35:27.520449 2044 2038 2133.0801 2133.3402 2131.2594 2129.6988 2131.5195 2128.1382 2130.7392 2133.0801 2135.6811 2135.421 2132.82 2138.5422 2160.1305 2506.8438 
14:35:27.528458 2045 2039 2129.9589 2132.2998 2132.82 2130.7392 2131.7796 2129.4387 2133.3402 2133.3402 2133.0801 2135.9412 2132.82 2137.2417 2160.6507 2504.5029 
14:35:27.536414 2045 2037 2130.9993 2131.2594 2131.7796 2129.6988 2129.6988 2129.1786 2129.6988 2133.8604 2130.9993 2135.6811 2132.2998 2134.1205 2161.9512 2508.1443 
14:35:27.544343 2044 2037 2130.4791 2133.3402 2131.2594 2131.5195 2132.2998 2131.7796 2131.5195 2133.8604 2132.5599 2134.3806 2130.7392 2129.4387 2160.9108 2507.1039 
14:35:27.552360 2043 2037 2130.4791 2133.0801 2131.2594 2130.4791 2131.7796 2134.9008 2130.9993 2132.82 2134.1205 2133.8604 2131.7796 2131.7796 2160.1305 2507.8842 
14:35:27.559358 2044 2038 2129.6988 2132.2998 2131.7796 2130.7392 2130.9993 2130.9993 2130.219 2132.2998 2132.5599 2134.9008 2131.5195 2132.2998 2158.0497 2503.7226 
14:35:27.567360 2046 2040 2133.0801 2130.9993 2130.9993 2129.6988 2130.219 2126.0574 2126.8377 2132.2998 2132.0397 2135.6811 2134.1205 2136.4614 2159.0901 2505.2832 
14:35:27.575364 2045 2038 2131.5195 2131.2594 2130.9993 2130.9993 2131.5195 2126.5776 2131.7796 2133.3402 2134.9008 2134.9008 2134.9008 2136.7215 2160.6507 2504.2428 
14:35:27.583363 2046 2038 2127.0978 2130.9993 2133.3402 2133.8604 2130.4791 2127.8781 2135.421 2134.3806 2133.6003 2133.8604 2135.9412 2136.4614 2161.431 2500.6014 
14:35:27.591363 2045 2038 2129.6988 2130.4791 2133.3402 2132.82 2129.4387 2131.5195 2129.4387 2132.0397 2130.219 2134.3806 2135.421 2135.9412 2158.83 2499.0408 
14:35:27.599362 2045 2037 2131.2594 2131.7796 2133.0801 2132.5599 2133.0801 2136.2013 2132.2998 2132.5599 2133.0801 2134.9008 2134.6407 2136.2013 2159.6103 2500.8615 
14:35:27.607398 2045 2038 2132.82 2132.2998 2131.5195 2131.2594 2134.3806 2135.421 2136.9816 2132.82 2133.8604 2133.8604 2133.3402 2138.022 2163.2517 2505.2832 
14:35:27.615397 2046 2037 2131.7796 2129.9589 2130.4791 2131.7796 2133.8604 2128.1382 2135.421 2132.0397 2132.2998 2134.9008 2132.82 2137.2417 2161.431 2501.3817 
14:35:27.623396 2044 2038 2135.421 2129.4387 2128.6584 2127.3579 2132.0397 2128.1382 2129.1786 2131.2594 2133.3402 2135.9412 2134.1205 2138.5422 2161.6911 2510.4852 
14:35:27.630397 2043 2038 2134.6407 2131.5195 2129.9589 2128.3983 2132.2998 2132.2998 2132.2998 2133.3402 2134.6407 2134.9008 2134.9008 2138.8023 2163.7719 2513.6064 
14:35:27.638396 2044 2038 2134.9008 2132.0397 2129.4387 2129.6988 2130.219 2135.1609 2129.4387 2132.5599 2133.3402 2134.3806 2134.6407 2139.5826 2164.2921 2513.8665 
14:35:27.646402 2045 2037 2130.9993 2132.5599 2130.4791 2132.82 2132.2998 2133.6003 2130.7392 2133.3402 2133.8604 2135.1609 2132.2998 2134.1205 2159.6103 2506.8438 
14:35:27.654397 2045 2037 2131.7796 2132.5599 2131.5195 2129.6988 2130.9993 2130.4791 2129.4387 2133.8604 2134.1205 2135.1609 2132.0397 2133.3402 2161.431 2512.0458 
14:35:27.662399 2046 2038 2129.4387 2133.3402 2132.5599 2130.7392 2131.7796 2128.3983 2132.2998 2133.0801 2133.3402 2134.9008 2130.219 2131.2594 2160.1305 2506.3236 
14:35:27.670414 2045 2037 2129.6988 2133.6003 2131.5195 2130.219 2132.0397 2127.8781 2128.6584 2132.0397 2133.8604 2135.421 2130.9993 2131.2594 2157.0093 2504.763 
14:35:27.678396 2045 2038 2128.3983 2132.82 2131.7796 2131.2594 2133.6003 2130.4791 2128.9185 2132.0397 2134.1205 2134.9008 2132.82 2131.2594 2157.2694 2501.1216 
14:35:27.686398 2045 2039 2130.4791 2131.2594 2132.5599 2130.219 2130.7392 2131.2594 2127.618 2132.0397 2133.3402 2134.9008 2133.3402 2134.3806 2160.6507 2501.9019 
14:35:27.694396 2044 2038 2130.4791 2131.7796 2132.82 2131.5195 2130.219 2127.8781 2129.6988 2132.2998 2133.0801 2134.9008 2131.7796 2133.3402 2159.0901 2501.9019 
14:35:27.701393 2045 2037 2131.7796 2130.4791 2132.2998 2130.9993 2130.7392 2126.0574 2128.1382 2131.5195 2131.7796 2134.3806 2132.0397 2135.1609 2159.8704 2506.5837 
14:35:27.709462 2044 2038 2131.7796 2129.9589 2132.0397 2130.4791 2131.2594 2129.4387 2129.4387 2130.9993 2130.4791 2133.6003 2132.0397 2135.9412 2161.6911 2503.4625 
14:35:27.725520 2044 2037 2131.7796 2130.7392 2133.0801 2129.9589 2131.2594 2133.6003 2130.7392 2132.82 2133.6003 2134.9008 2134.6407 2135.6811 2160.3906 2507.8842 
14:35:27.733520 2046 2038 2130.4791 2130.219 2132.82 2131.5195 2132.2998 2133.3402 2132.5599 2133.3402 2133.6003 2133.6003 2134.6407 2135.421 2159.8704 2505.0231 
14:35:27.741515 2045 2038 2133.0801 2132.5599 2132.2998 2130.9993 2133.3402 2130.219 2132.0397 2133.3402 2132.82 2133.8604 2133.3402 2137.5018 2160.9108 2503.4625 
14:35:27.749523 2045 2038 2132.0397 2133.0801 2132.82 2133.3402 2135.6811 2128.9185 2133.3402 2132.82 2133.6003 2135.1609 2134.3806 2138.8023 2161.1709 2502.162 
14:35:27.756669 2044 2038 2130.9993 2131.2594 2130.4791 2131.7796 2133.8604 2133.3402 2131.7796 2131.2594 2134.9008 2135.6811 2134.3806 2136.7215 2162.4714 2509.4448 
14:35:27.764692 2044 2037 2130.219 2131.7796 2130.7392 2131.5195 2133.0801 2134.3806 2131.7796 2132.0397 2135.421 2135.1609 2132.0397 2133.0801 2161.6911 2509.1847 
14:35:27.772695 2044 2038 2133.3402 2133.0801 2132.5599 2132.2998 2133.0801 2131.7796 2128.9185 2132.2998 2133.3402 2135.9412 2130.4791 2133.8604 2161.431 2511.5256 
14:35:27.780670 2046 2039 2129.6988 2131.7796 2132.82 2134.3806 2133.8604 2131.2594 2132.82 2132.82 2132.82 2135.6811 2130.219 2132.5599 2158.83 2506.0635 
14:35:27.788671 2046 2039 2130.219 2130.4791 2130.7392 2128.6584 2129.4387 2130.9993 2128.9185 2132.0397 2134.6407 2134.3806 2130.4791 2131.5195 2158.5699 2507.8842 
14:35:27.796664 2047 2039 2130.219 2132.0397 2132.0397 2128.1382 2131.2594 2128.6584 2129.6988 2132.5599 2135.6811 2134.6407 2131.5195 2131.7796 2158.83 2503.4625 
14:35:27.804676 2045 2039 2133.0801 2130.4791 2131.2594 2128.9185 2132.0397 2129.6988 2128.1382 2131.2594 2133.0801 2135.1609 2133.8604 2135.9412 2160.6507 2504.5029 
14:35:27.812667 2043 2038 2130.219 2130.4791 2131.2594 2132.82 2132.0397 2133.0801 2130.7392 2132.0397 2130.9993 2133.6003 2132.2998 2133.8604 2158.83 2502.4221 
14:35:27.820672 2045 2038 2132.0397 2132.82 2132.2998 2131.7796 2130.4791 2135.421 2129.9589 2133.8604 2131.7796 2133.8604 2133.8604 2135.9412 2161.1709 2508.4044 
14:35:27.827658 2045 2039 2131.2594 2133.6003 2132.5599 2130.9993 2132.82 2133.8604 2132.5599 2133.3402 2132.82 2135.9412 2133.6003 2134.9008 2160.6507 2505.5433 
14:35:27.835654 2045 2038 2129.4387 2132.2998 2130.9993 2129.9589 2132.0397 2128.3983 2129.6988 2131.2594 2132.82 2135.421 2130.7392 2134.9008 2160.1305 2508.1443 
14:35:27.843619 2047 2038 2130.219 2131.7796 2131.5195 2130.9993 2131.5195 2126.3175 2129.9589 2132.2998 2132.82 2133.6003 2130.9993 2135.1609 2160.3906 2507.6241 
14:35:27.851640 2045 2038 2132.0397 2130.9993 2132.0397 2130.4791 2130.9993 2130.219 2129.9589 2133.8604 2133.3402 2135.421 2134.3806 2134.9008 2161.1709 2505.2832 
14:35:27.859646 2044 2037 2130.9993 2132.0397 2130.4791 2130.7392 2132.5599 2134.3806 2131.7796 2132.2998 2133.0801 2136.7215 2133.3402 2131.7796 2159.6103 2503.2024 
14:35:27.867635 2042 2037 2131.5195 2132.5599 2130.9993 2131.5195 2132.0397 2134.1205 2131.2594 2130.9993 2133.0801 2135.6811 2134.1205 2135.1609 2158.83 2503.4625 
14:35:27.875640 2045 2037 2132.2998 2132.5599 2133.3402 2131.2594 2132.0397 2133.3402 2130.7392 2132.0397 2132.82 2135.421 2134.9008 2138.022 2160.3906 2504.5029 
14:35:27.883639 2045 2039 2129.4387 2132.5599 2133.8604 2131.7796 2132.82 2127.3579 2129.9589 2133.6003 2133.3402 2135.421 2133.0801 2134.3806 2160.1305 2504.2428 
14:35:27.890578 2046 2040 2129.4387 2133.6003 2131.5195 2130.9993 2132.2998 2123.9766 2129.1786 2131.5195 2134.3806 2134.9008 2131.7796 2133.0801 2159.6103 2508.1443 
14:35:27.898643 2046 2039 2129.9589 2134.3806 2132.0397 2132.2998 2132.2998 2127.3579 2133.0801 2130.4791 2134.3806 2134.6407 2132.5599 2134.9008 2159.3502 2506.3236 
14:35:27.906639 2043 2036 2131.7796 2133.8604 2132.0397 2129.4387 2129.4387 2133.3402 2129.4387 2130.7392 2132.2998 2134.6407 2131.5195 2134.6407 2160.6507 2511.2655 
14:35:27.914635 2043 2036 2129.9589 2132.0397 2131.7796 2129.4387 2130.4791 2136.9816 2129.9589 2132.0397 2132.2998 2135.1609 2131.7796 2131.7796 2159.6103 2507.1039 
14:35:27.922636 2044 2039 2131.7796 2130.9993 2130.7392 2128.1382 2130.7392 2134.6407 2128.6584 2132.0397 2133.6003 2136.7215 2133.3402 2133.3402 2157.7896 2505.0231 
14:35:27.930642 2045 2040 2129.9589 2132.2998 2131.5195 2130.4791 2132.82 2125.2771 2129.6988 2131.7796 2133.8604 2135.9412 2132.5599 2134.1205 2158.3098 2501.6418 
14:35:27.938636 2045 2037 2132.0397 2131.5195 2130.4791 2129.1786 2130.4791 2120.8554 2126.5776 2130.9993 2132.0397 2133.6003 2134.6407 2138.2821 2162.9916 2507.1039 
14:35:27.946638 2045 2038 2129.6988 2131.5195 2132.0397 2131.7796 2131.5195 2127.0978 2131.7796 2133.8604 2131.7796 2134.6407 2133.8604 2136.2013 2161.6911 2503.2024 
14:35:27.953639 2044 2037 2130.4791 2133.3402 2133.3402 2131.7796 2130.4791 2134.6407 2130.7392 2133.8604 2133.0801 2135.6811 2130.9993 2136.9816 2161.9512 2507.6241 
14:35:27.961636 2042 2036 2128.6584 2134.1205 2134.3806 2133.3402 2131.7796 2137.5018 2133.0801 2132.0397 2133.3402 2134.6407 2130.4791 2135.421 2161.431 2502.6822 
14:35:27.969638 2043 2038 2131.7796 2130.9993 2131.7796 2130.9993 2133.3402 2135.1609 2131.2594 2131.7796 2133.0801 2135.6811 2134.1205 2134.1205 2161.431 2504.5029 
14:35:27.977640 2047 2038 2133.0801 2130.4791 2130.219 2130.4791 2133.8604 2129.1786 2131.5195 2132.82 2133.8604 2136.7215 2134.6407 2133.3402 2159.6103 2506.5837 
14:35:27.985636 2047 2040 2133.3402 2132.82 2131.7796 2130.7392 2130.9993 2125.017 2130.7392 2132.5599 2133.6003 2135.6811 2134.3806 2138.022 2161.1709 2509.1847 
14:35:27.993642 2045 2037 2132.2998 2133.3402 2133.6003 2130.9993 2132.2998 2127.618 2132.5599 2132.0397 2131.5195 2134.9008 2133.3402 2138.022 2160.3906 2505.2832 
14:35:28.001640 2043 2038 2132.5599 2131.2594 2132.5599 2130.9993 2132.82 2132.0397 2127.3579 2132.0397 2131.5195 2134.9008 2132.0397 2135.6811 2160.6507 2507.6241 
14:35:28.009637 2044 2037 2132.0397 2132.5599 2130.9993 2132.82 2132.5599 2135.9412 2127.0978 2132.0397 2133.8604 2134.9008 2130.7392 2134.9008 2162.2113 2511.0054 
14:35:28.017633 2045 2037 2131.7796 2133.0801 2132.0397 2132.5599 2131.5195 2133.8604 2131.7796 2133.6003 2134.1205 2135.421 2131.5195 2135.1609 2160.9108 2509.7049 
14:35:28.024711 2047 2038 2132.82 2132.5599 2132.5599 2130.219 2131.7796 2126.3175 2129.4387 2133.0801 2131.7796 2135.9412 2130.4791 2132.82 2158.3098 2510.7453 
14:35:28.032690 2045 2038 2130.7392 2131.2594 2132.0397 2131.7796 2133.8604 2122.6761 2129.6988 2132.0397 2131.7796 2135.421 2132.0397 2133.3402 2159.0901 2506.5837 
14:35:28.040690 2046 2039 2131.7796 2131.2594 2130.4791 2130.219 2132.2998 2129.9589 2131.2594 2132.0397 2132.2998 2135.1609 2133.6003 2134.1205 2159.8704 2505.2832 
14:35:28.048671 2044 2038 2130.9993 2132.5599 2132.0397 2130.7392 2131.5195 2135.421 2132.0397 2133.6003 2132.0397 2135.421 2131.2594 2134.1205 2157.7896 2504.2428 
14:35:28.056823 2044 2038 2131.7796 2132.5599 2133.3402 2130.219 2130.219 2134.9008 2125.5372 2132.0397 2130.9993 2135.421 2132.82 2137.7619 2158.5699 2508.1443 
14:35:28.064677 2044 2036 2128.9185 2131.2594 2134.3806 2132.82 2131.5195 2132.5599 2128.6584 2131.2594 2132.82 2135.421 2134.6407 2136.9816 2158.83 2504.763 
14:35:28.072640 2045 2038 2131.5195 2132.0397 2132.2998 2130.7392 2130.219 2130.7392 2130.219 2130.9993 2132.82 2134.9008 2132.2998 2138.022 2161.431 2510.2251 
14:35:28.080654 2046 2038 2129.6988 2134.1205 2132.2998 2132.2998 2131.5195 2127.0978 2131.7796 2132.2998 2131.5195 2134.9008 2131.7796 2134.3806 2159.8704 2505.0231 
14:35:28.087638 2046 2038 2131.2594 2132.2998 2132.2998 2130.7392 2129.6988 2127.8781 2128.9185 2131.5195 2132.2998 2136.2013 2133.8604 2132.2998 2159.6103 2507.6241 
14:35:28.095640 2044 2039 2130.7392 2131.5195 2133.3402 2131.7796 2130.219 2132.2998 2133.3402 2131.5195 2134.1205 2136.2013 2131.5195 2130.9993 2158.3098 2504.763 
14:35:28.103582 2044 2038 2132.82 2132.2998 2132.82 2130.7392 2131.5195 2133.8604 2131.5195 2131.7796 2132.0397 2134.6407 2132.2998 2134.6407 2159.6103 2505.2832 
14:35:28.111712 2044 2037 2129.6988 2132.2998 2132.5599 2132.0397 2133.6003 2134.3806 2132.0397 2132.5599 2129.4387 2133.8604 2134.1205 2134.1205 2158.5699 2501.6418 
14:35:28.119640 2045 2036 2130.219 2131.5195 2130.9993 2130.9993 2129.9589 2132.2998 2127.618 2132.2998 2131.2594 2134.1205 2131.7796 2135.9412 2160.3906 2507.364 
14:35:28.127614 2046 2038 2131.5195 2133.3402 2130.7392 2130.7392 2130.9993 2129.6988 2127.0978 2132.0397 2133.3402 2134.6407 2130.219 2137.5018 2161.1709 2509.1847 
14:35:28.135609 2045 2039 2132.2998 2133.6003 2131.5195 2129.9589 2131.5195 2127.3579 2127.8781 2132.0397 2132.0397 2135.6811 2133.6003 2135.9412 2158.83 2510.2251 
14:35:28.143625 2045 2040 2130.9993 2133.6003 2131.7796 2130.7392 2130.9993 2128.3983 2131.5195 2131.5195 2131.2594 2134.9008 2131.7796 2132.0397 2157.5295 2508.4044 
14:35:28.150611 2046 2037 2132.0397 2132.82 2131.2594 2130.219 2130.4791 2132.0397 2132.0397 2131.2594 2133.8604 2134.1205 2132.0397 2134.3806 2159.3502 2505.2832 
14:35:28.158634 2044 2038 2132.5599 2132.0397 2130.9993 2129.4387 2130.4791 2134.3806 2129.1786 2132.2998 2134.3806 2135.1609 2133.0801 2134.6407 2157.5295 2505.0231 
14:35:28.166543 2044 2037 2130.9993 2130.7392 2132.5599 2131.7796 2131.5195 2134.1205 2128.9185 2133.6003 2133.0801 2135.9412 2134.6407 2135.9412 2157.5295 2505.5433 
14:35:28.174636 2044 2037 2133.0801 2131.2594 2132.82 2132.0397 2132.0397 2131.7796 2129.1786 2131.5195 2132.82 2135.9412 2134.9008 2135.9412 2159.3502 2504.2428 
14:35:28.182632 2046 2039 2133.0801 2133.6003 2133.0801 2131.7796 2132.2998 2127.0978 2131.2594 2131.5195 2133.3402 2136.2013 2133.6003 2135.421 2159.6103 2500.8615 
14:35:28.190654 2048 2038 2134.1205 2133.3402 2131.2594 2128.9185 2130.7392 2126.0574 2128.6584 2132.2998 2131.2594 2135.6811 2133.6003 2138.8023 2161.9512 2507.6241 
14:35:28.198584 2044 2038 2131.7796 2132.2998 2132.0397 2131.2594 2131.7796 2129.9589 2131.2594 2133.0801 2131.5195 2135.421 2133.3402 2137.2417 2161.431 2506.3236 
14:35:28.206639 2044 2038 2133.8604 2132.2998 2132.82 2130.7392 2130.9993 2136.2013 2131.5195 2130.7392 2132.82 2136.4614 2133.3402 2134.3806 2160.3906 2507.6241 
14:35:28.213579 2043 2037 2132.0397 2132.5599 2133.0801 2132.2998 2133.0801 2136.4614 2132.2998 2131.2594 2133.3402 2135.421 2134.9008 2133.6003 2159.0901 2501.9019 
14:35:28.221580 2045 2037 2133.6003 2130.4791 2131.7796 2130.9993 2131.7796 2132.2998 2128.3983 2131.7796 2133.6003 2134.6407 2136.7215 2138.8023 2161.431 2506.0635 
14:35:28.229681 2046 2039 2132.0397 2130.9993 2132.0397 2132.2998 2132.5599 2126.8377 2132.0397 2131.7796 2133.6003 2135.9412 2134.1205 2136.7215 2160.3906 2503.2024 
14:35:28.237681 2045 2040 2133.0801 2132.0397 2130.7392 2130.219 2132.0397 2125.017 2129.1786 2131.7796 2132.2998 2137.2417 2133.3402 2137.5018 2162.4714 2508.6645 
14:35:28.245667 2045 2039 2130.9993 2132.0397 2130.7392 2132.0397 2132.5599 2129.1786 2130.9993 2133.0801 2133.8604 2136.2013 2133.3402 2136.2013 2160.3906 2507.364 
14:35:28.253422 2045 2037 2132.0397 2132.0397 2131.5195 2130.9993 2128.3983 2133.8604 2128.6584 2132.82 2134.6407 2135.1609 2131.5195 2133.3402 2159.0901 2509.7049 
14:35:28.261339 2045 2038 2130.7392 2135.421 2131.7796 2130.7392 2129.6988 2135.421 2130.4791 2133.0801 2132.2998 2134.3806 2129.4387 2130.4791 2158.83 2506.8438 
14:35:28.269338 2047 2038 2131.5195 2134.3806 2130.9993 2129.4387 2131.5195 2132.2998 2129.6988 2132.82 2132.2998 2134.1205 2132.5599 2133.3402 2158.83 2506.0635 
14:35:28.277342 2046 2039 2131.7796 2131.5195 2131.5195 2130.7392 2132.2998 2126.8377 2128.3983 2131.5195 2133.8604 2134.9008 2132.5599 2132.2998 2157.5295 2503.9827 
14:35:28.284341 2044 2038 2134.6407 2130.7392 2131.2594 2130.9993 2130.7392 2125.2771 2125.7973 2131.2594 2132.0397 2135.421 2133.0801 2134.9008 2159.8704 2506.0635 
14:35:28.292341 2043 2038 2133.6003 2132.5599 2131.5195 2130.4791 2131.2594 2129.9589 2128.1382 2131.7796 2131.2594 2135.1609 2132.5599 2135.421 2159.3502 2505.2832 
14:35:28.300341 2044 2038 2129.9589 2133.6003 2132.82 2131.2594 2131.7796 2132.82 2129.1786 2131.2594 2133.0801 2135.6811 2130.7392 2134.6407 2159.8704 2505.8034 
14:35:28.308342 2045 2038 2130.7392 2134.3806 2133.6003 2132.0397 2131.7796 2132.0397 2127.0978 2131.2594 2132.0397 2135.421 2130.4791 2136.2013 2161.431 2506.8438 
14:35:28.316356 2045 2038 2130.9993 2132.5599 2134.6407 2132.82 2131.7796 2130.219 2129.1786 2133.0801 2131.2594 2134.3806 2130.9993 2135.6811 2160.1305 2503.9827 
14:35:28.324359 2043 2037 2130.9993 2130.219 2133.0801 2129.9589 2130.9993 2129.6988 2131.7796 2133.6003 2132.2998 2134.9008 2129.9589 2132.0397 2159.6103 2504.5029 
14:35:28.332344 2044 2040 2129.6988 2131.2594 2132.2998 2130.9993 2134.6407 2130.219 2135.421 2132.2998 2134.1205 2135.421 2132.5599 2133.6003 2159.8704 2501.6418 
14:35:28.340485 2044 2039 2133.8604 2131.5195 2132.0397 2129.9589 2134.3806 2133.8604 2132.5599 2131.2594 2132.82 2134.3806 2137.5018 2139.8427 2161.1709 2506.5837 
14:35:28.348343 2047 2039 2132.5599 2131.2594 2133.0801 2131.7796 2131.7796 2134.1205 2132.5599 2134.1205 2132.82 2133.6003 2133.6003 2136.7215 2159.8704 2506.0635 
14:35:28.355349 2048 2037 2133.8604 2132.82 2130.7392 2130.7392 2130.219 2131.2594 2128.6584 2134.1205 2134.3806 2134.6407 2129.9589 2135.9412 2162.2113 2509.4448 
14:35:28.363348 2047 2038 2132.0397 2134.3806 2130.219 2131.5195 2134.1205 2128.1382 2131.5195 2132.0397 2134.1205 2135.1609 2132.82 2135.1609 2160.3906 2503.2024 
14:35:28.371346 2044 2037 2132.82 2133.0801 2131.2594 2128.9185 2131.5195 2127.3579 2127.3579 2131.7796 2130.9993 2135.1609 2133.6003 2133.3402 2159.3502 2508.6645 
14:35:28.379375 2044 2038 2130.9993 2132.0397 2132.82 2131.7796 2132.5599 2131.5195 2129.6988 2134.3806 2131.5195 2135.421 2129.9589 2130.7392 2157.5295 2505.2832 
14:35:28.387338 2045 2037 2132.82 2133.3402 2130.7392 2132.0397 2132.0397 2134.9008 2129.4387 2133.3402 2132.82 2136.4614 2130.4791 2133.6003 2158.0497 2503.2024 
14:35:28.395335 2045 2038 2130.9993 2133.3402 2129.9589 2132.82 2131.7796 2130.9993 2129.1786 2132.0397 2132.2998 2135.1609 2131.5195 2130.9993 2157.2694 2497.4802 
14:35:28.403337 2044 2038 2131.5195 2130.9993 2131.2594 2130.7392 2130.4791 2126.0574 2124.2367 2132.2998 2131.2594 2134.6407 2130.9993 2131.7796 2158.5699 2501.6418 
14:35:28.411340 2045 2039 2130.4791 2132.0397 2132.5599 2131.2594 2130.7392 2126.8377 2128.6584 2132.0397 2132.0397 2136.4614 2130.4791 2132.82 2157.7896 2501.6418 
14:35:28.419341 2044 2039 2132.0397 2132.82 2131.5195 2129.4387 2129.4387 2129.6988 2130.4791 2132.0397 2132.82 2136.4614 2135.1609 2136.9816 2159.3502 2502.162 
14:35:28.426379 2043 2037 2132.5599 2130.9993 2131.5195 2129.6988 2130.9993 2133.8604 2130.219 2133.8604 2132.82 2134.1205 2137.5018 2136.9816 2160.3906 2500.0812 
14:35:28.434342 2044 2038 2132.2998 2129.9589 2132.0397 2130.4791 2131.2594 2135.1609 2131.2594 2134.3806 2132.5599 2134.9008 2135.6811 2138.022 2160.3906 2503.7226 
14:35:28.442350 2046 2038 2132.2998 2131.7796 2130.7392 2129.9589 2131.5195 2131.7796 2132.82 2132.0397 2132.5599 2135.9412 2133.6003 2139.5826 2160.3906 2506.5837 
14:35:28.450346 2047 2040 2133.0801 2131.7796 2130.4791 2130.219 2133.3402 2126.8377 2133.3402 2132.82 2132.5599 2135.421 2136.2013 2140.1028 2161.9512 2503.7226 
14:35:28.458348 2046 2040 2133.3402 2132.0397 2130.9993 2129.9589 2133.3402 2126.5776 2132.5599 2133.0801 2132.0397 2135.421 2134.6407 2137.2417 2162.2113 2505.2832 
14:35:28.466350 2046 2039 2130.219 2133.0801 2132.82 2130.7392 2132.82 2130.9993 2132.5599 2132.2998 2133.3402 2135.6811 2130.9993 2134.9008 2161.1709 2505.5433 
14:35:28.474358 2043 2036 2132.0397 2133.8604 2130.4791 2129.4387 2132.82 2136.9816 2129.9589 2132.0397 2134.1205 2135.1609 2130.9993 2135.9412 2162.4714 2509.7049 
14:35:28.481361 2044 2036 2130.9993 2134.1205 2130.4791 2132.2998 2134.3806 2137.5018 2133.0801 2133.6003 2133.8604 2134.3806 2130.7392 2132.2998 2160.9108 2507.364 
14:35:28.489358 2046 2039 2132.2998 2132.82 2131.7796 2130.219 2132.82 2131.7796 2129.1786 2131.5195 2133.0801 2134.6407 2129.1786 2130.9993 2160.3906 2509.7049 
14:35:28.497354 2046 2038 2130.9993 2132.0397 2132.82 2129.4387 2132.82 2125.5372 2128.1382 2130.4791 2133.6003 2135.421 2130.4791 2130.9993 2158.83 2502.4221 
14:35:28.505402 2045 2038 2133.0801 2132.5599 2130.9993 2129.4387 2130.4791 2124.7569 2125.5372 2131.5195 2133.3402 2135.9412 2133.3402 2133.8604 2160.1305 2504.763 
14:35:28.513392 2047 2038 2130.7392 2132.82 2130.9993 2133.6003 2132.2998 2128.9185 2128.3983 2133.8604 2132.2998 2135.1609 2132.5599 2132.0397 2158.83 2502.162 
14:35:28.521391 2044 2037 2131.7796 2131.2594 2130.9993 2131.5195 2131.2594 2134.9008 2125.7973 2132.82 2132.5599 2134.6407 2132.0397 2132.0397 2158.5699 2503.7226 
14:35:28.529391 2044 2037 2129.9589 2130.9993 2132.0397 2131.5195 2130.7392 2135.421 2128.9185 2133.0801 2133.6003 2134.3806 2130.7392 2132.0397 2158.0497 2499.0408 
14:35:28.537392 2045 2038 2131.2594 2130.9993 2132.0397 2130.7392 2130.7392 2129.6988 2128.6584 2134.1205 2132.2998 2133.8604 2131.5195 2134.1205 2158.83 2502.162 
14:35:28.544391 2045 2039 2130.4791 2131.7796 2132.0397 2132.2998 2132.82 2125.017 2132.82 2134.1205 2131.7796 2134.1205 2131.7796 2131.7796 2157.5295 2500.8615 
14:35:28.552491 2049 2038 2132.5599 2130.4791 2130.4791 2130.7392 2129.4387 2125.5372 2132.5599 2132.0397 2132.5599 2135.1609 2132.5599 2136.4614 2160.1305 2503.9827 
14:35:28.560505 2047 2038 2134.1205 2130.219 2129.6988 2130.7392 2129.9589 2130.4791 2132.82 2131.2594 2131.7796 2135.421 2135.421 2140.623 2161.9512 2501.3817 
14:35:28.568357 2045 2038 2135.421 2130.219 2130.9993 2129.9589 2132.5599 2134.3806 2130.4791 2131.7796 2130.7392 2134.9008 2137.7619 2140.1028 2161.1709 2503.4625 
14:35:28.576355 2043 2037 2134.3806 2131.2594 2132.5599 2130.4791 2134.1205 2135.6811 2131.2594 2130.4791 2131.7796 2134.6407 2133.0801 2136.9816 2160.9108 2508.6645 
14:35:28.584336 2044 2037 2133.3402 2132.2998 2132.5599 2132.0397 2132.82 2132.82 2130.7392 2130.4791 2132.0397 2135.6811 2131.5195 2140.3629 2163.5118 2509.965 
14:35:28.592365 2046 2037 2132.5599 2134.3806 2132.0397 2132.5599 2133.0801 2128.9185 2130.219 2131.7796 2131.5195 2135.9412 2132.82 2139.0624 2162.4714 2508.1443 
14:35:28.600336 2047 2039 2130.9993 2134.1205 2131.7796 2132.82 2133.6003 2126.5776 2131.7796 2132.82 2133.3402 2135.1609 2132.0397 2133.6003 2159.6103 2507.1039 
14:35:28.608336 2046 2038 2131.5195 2133.6003 2130.219 2133.0801 2132.2998 2127.618 2131.5195 2132.0397 2134.1205 2134.3806 2129.4387 2131.7796 2160.3906 2509.1847 
14:35:28.615337 2046 2037 2130.4791 2134.6407 2132.2998 2135.6811 2132.2998 2131.5195 2133.0801 2132.5599 2133.6003 2134.6407 2129.4387 2130.9993 2158.83 2503.7226 
14:35:28.623346 2043 2037 2132.0397 2133.0801 2132.5599 2132.5599 2130.219 2135.421 2128.3983 2131.7796 2133.6003 2135.421 2130.9993 2131.7796 2156.7492 2505.0231 
14:35:28.631347 2044 2036 2130.4791 2131.2594 2131.5195 2131.7796 2131.5195 2133.3402 2127.8781 2132.2998 2133.0801 2135.9412 2131.7796 2131.7796 2158.3098 2503.2024 
14:35:28.639347 2045 2038 2132.0397 2132.5599 2130.219 2130.219 2130.7392 2129.1786 2128.1382 2132.2998 2130.9993 2135.1609 2131.5195 2133.0801 2161.431 2506.0635 
14:35:28.647350 2046 2039 2128.9185 2133.3402 2132.5599 2132.82 2130.219 2125.7973 2131.7796 2132.82 2132.0397 2134.6407 2130.219 2132.5599 2158.83 2500.0812 
14:35:28.655344 2047 2038 2130.9993 2129.9589 2132.5599 2131.2594 2128.6584 2125.7973 2125.7973 2132.2998 2133.8604 2136.2013 2133.3402 2136.2013 2159.0901 2501.9019 
14:35:28.663365 2045 2039 2130.9993 2129.4387 2133.3402 2132.82 2131.7796 2129.4387 2129.9589 2133.0801 2133.6003 2135.9412 2134.6407 2134.6407 2158.83 2499.0408 
14:35:28.671359 2043 2037 2134.1205 2131.5195 2132.82 2131.7796 2130.9993 2133.8604 2131.5195 2132.0397 2133.0801 2134.3806 2133.8604 2136.9816 2161.1709 2505.5433 
14:35:28.679375 2043 2036 2132.2998 2132.5599 2132.0397 2133.3402 2132.2998 2135.421 2132.2998 2131.7796 2133.6003 2135.421 2133.3402 2137.7619 2160.3906 2501.9019 
14:35:28.686371 2044 2037 2133.3402 2131.5195 2130.9993 2131.2594 2133.3402 2134.1205 2129.4387 2132.5599 2133.3402 2136.4614 2135.9412 2138.022 2161.6911 2505.2832 
14:35:28.694367 2045 2038 2132.5599 2133.0801 2131.7796 2131.2594 2134.6407 2130.9993 2133.0801 2133.3402 2133.6003 2135.421 2133.8604 2136.7215 2162.7315 2508.6645 
14:35:28.702390 2046 2039 2134.1205 2133.0801 2131.2594 2130.9993 2132.5599 2127.0978 2130.4791 2133.3402 2133.8604 2135.1609 2131.5195 2140.623 2164.032 2511.0054 
14:35:28.710367 2047 2038 2133.8604 2132.0397 2129.9589 2131.2594 2134.3806 2129.1786 2130.4791 2132.5599 2134.1205 2135.6811 2131.5195 2136.7215 2161.431 2507.6241 
14:35:28.718337 2046 2036 2132.82 2131.7796 2131.2594 2131.2594 2134.1205 2133.3402 2130.9993 2132.0397 2134.1205 2135.421 2132.0397 2133.3402 2161.9512 2512.3059 
14:35:28.726334 2045 2037 2132.82 2132.5599 2132.2998 2133.3402 2132.0397 2136.2013 2130.9993 2132.0397 2132.5599 2135.1609 2130.4791 2134.6407 2162.4714 2512.8261 
14:35:28.742346 2046 2038 2132.82 2132.2998 2130.7392 2131.7796 2131.2594 2129.1786 2129.6988 2131.7796 2133.8604 2135.1609 2131.5195 2128.1382 2156.7492 2503.9827 
14:35:28.749348 2048 2038 2130.219 2132.0397 2132.2998 2132.0397 2132.5599 2124.2367 2129.9589 2132.82 2132.5599 2135.1609 2130.7392 2130.7392 2159.0901 2502.6822 
14:35:28.757346 2047 2038 2131.2594 2131.2594 2132.82 2131.2594 2131.2594 2125.5372 2129.1786 2131.5195 2130.7392 2135.6811 2130.4791 2133.8604 2160.9108 2502.6822 
14:35:28.765347 2044 2037 2130.9993 2132.5599 2132.5599 2132.0397 2130.219 2127.618 2128.1382 2131.2594 2132.0397 2135.9412 2131.5195 2131.7796 2158.83 2500.0812 
14:35:28.773347 2046 2038 2132.5599 2132.5599 2130.9993 2130.9993 2127.8781 2130.9993 2124.4968 2131.7796 2132.2998 2135.1609 2132.5599 2132.2998 2158.0497 2504.5029 
14:35:28.781347 2045 2038 2129.6988 2130.7392 2131.5195 2133.0801 2130.7392 2134.1205 2131.2594 2134.1205 2131.7796 2134.3806 2132.2998 2133.6003 2158.3098 2502.4221 
14:35:28.789346 2044 2038 2132.5599 2130.4791 2131.7796 2129.9589 2130.7392 2132.0397 2130.9993 2133.6003 2131.7796 2134.6407 2133.0801 2137.7619 2161.431 2506.3236 
