H:M:S.f Gyro(x) Gyro(y) F3 FC5 AF3 F7 T7 P7 O1 O2 P8 T8 F8 AF4 FC6 F4
2033 2048 2138.8023 2145.3048 2162.4714 2142.4437 2116.9539 2124.2367 2114.8731 2123.7165 2126.3175 2128.6584 2149.4664 2163.2517 2139.0624 2142.7038 
2036 2045 2135.9412 2146.0851 2168.7138 2144.0043 2114.0928 2121.3756 2105.2494 2115.9135 2121.8958 2121.1155 2152.5876 2166.8931 2139.8427 2144.5245 
2036 2045 2133.6003 2146.8654 2166.1128 2139.8427 2095.6257 2119.0347 2108.8908 2111.4918 2116.4337 2109.1509 2146.8654 2163.5118 2138.022 2140.8831 
2036 2045 2134.1205 2146.0851 2167.6734 2144.0043 2104.9893 2122.1559 2110.4514 2113.5726 2116.9539 2108.6307 2141.1432 2161.1709 2135.9412 2140.3629 
2036 2046 2136.2013 2146.3452 2170.5345 2150.5068 2119.815 2124.7569 2106.81 2117.4741 2121.3756 2114.613 2144.2644 2162.7315 2136.7215 2142.9639 
2036 2045 2137.2417 2147.6457 2167.9335 2149.9866 2103.4287 2122.9362 2108.8908 2119.5549 2121.1155 2119.2948 2145.0447 2160.3906 2138.5422 2149.2063 
2035 2048 2135.1609 2147.3856 2159.0901 2149.7265 2095.3656 2120.8554 2111.2317 2119.5549 2118.7746 2115.9135 2139.0624 2151.027 2136.7215 2145.825 
2035 2048 2126.8377 2138.2821 2147.9058 2142.7038 2115.1332 2117.214 2109.6711 2114.8731 2114.8731 2110.7115 2127.8781 2136.2013 2129.6988 2137.7619 
2037 2046 2123.4564 2130.4791 2140.623 2136.9816 2125.2771 2117.4741 2110.4514 2116.9539 2116.1736 2116.1736 2123.1963 2128.6584 2126.3175 2136.4614 
2039 2047 2127.8781 2136.4614 2143.224 2142.7038 2110.9716 2121.1155 2113.5726 2123.1963 2122.6761 2119.0347 2123.9766 2128.9185 2129.4387 2141.1432 
2039 2049 2126.3175 2138.8023 2138.5422 2142.1836 2097.7065 2119.815 2116.9539 2118.5145 2117.4741 2108.1105 2118.2544 2122.6761 2126.5776 2137.2417 
2040 2047 2126.0574 2133.3402 2132.2998 2134.1205 2102.9085 2118.7746 2114.0928 2110.9716 2111.7519 2100.0474 2118.2544 2120.0751 2124.4968 2134.9008 
2041 2046 2132.0397 2134.3806 2137.2417 2138.5422 2115.9135 2123.1963 2105.7696 2116.1736 2120.5953 2112.012 2127.3579 2127.618 2130.4791 2140.3629 
2041 2045 2133.3402 2139.8427 2139.0624 2142.7038 2114.3529 2126.0574 2106.0297 2126.8377 2132.0397 2128.3983 2129.9589 2127.0978 2132.82 2140.1028 
2040 2044 2122.9362 2131.5195 2125.7973 2130.4791 2100.5676 2121.6357 2110.1913 2124.2367 2126.8377 2120.8554 2119.2948 2113.8327 2126.0574 2131.7796 
2042 2042 2120.3352 2123.9766 2121.6357 2126.3175 2107.8504 2119.2948 2109.1509 2115.6534 2119.2948 2106.2898 2115.9135 2110.9716 2124.4968 2128.9185 
2041 2042 2122.416 2122.416 2126.5776 2129.6988 2116.6938 2119.2948 2108.8908 2113.5726 2115.1332 2107.5903 2116.1736 2113.3125 2124.2367 2131.5195 
2043 2038 2120.0751 2125.2771 2121.1155 2128.3983 2106.5499 2119.0347 2114.3529 2116.1736 2113.5726 2114.0928 2111.7519 2108.1105 2121.1155 2129.1786 
2044 2036 2118.2544 2126.0574 2116.4337 2126.3175 2112.5322 2120.0751 2113.0524 2115.6534 2114.3529 2112.7923 2107.8504 2103.6888 2119.2948 2130.9993 
2044 2035 2125.5372 2126.0574 2121.1155 2129.9589 2124.4968 2123.7165 2115.6534 2119.0347 2119.815 2120.0751 2114.8731 2109.411 2121.6357 2134.9008 
2042 2032 2127.3579 2125.5372 2125.017 2132.2998 2104.7292 2122.1559 2119.5549 2123.1963 2120.0751 2120.5953 2116.6938 2112.7923 2122.416 2138.022 
2043 2029 2121.3756 2126.5776 2122.6761 2132.82 2100.0474 2117.214 2113.8327 2118.2544 2115.9135 2104.4691 2112.5322 2109.9312 2123.4564 2134.3806 
2044 2028 2122.6761 2128.1382 2125.2771 2134.3806 2120.5953 2119.0347 2104.209 2112.5322 2114.8731 2103.6888 2114.8731 2110.1913 2125.7973 2135.421 
2044 2028 2130.9993 2128.9185 2127.3579 2137.2417 2123.7165 2125.2771 2103.4287 2117.4741 2123.1963 2123.7165 2120.5953 2113.8327 2126.5776 2136.4614 
2044 2027 2126.0574 2121.6357 2120.3352 2130.9993 2115.9135 2122.1559 2106.5499 2118.2544 2124.2367 2122.1559 2114.3529 2107.8504 2122.416 2132.82 
2046 2026 2113.5726 2112.2721 2108.3706 2120.0751 2111.4918 2115.3933 2108.3706 2112.012 2114.0928 2098.4868 2104.209 2094.8454 2116.6938 2124.2367 
2046 2027 2111.4918 2110.7115 2105.7696 2116.6938 2094.8454 2113.5726 2108.6307 2108.6307 2108.8908 2094.0651 2100.3075 2089.6434 2113.0524 2121.1155 
2047 2028 2113.3125 2109.6711 2104.9893 2118.2544 2095.3656 2114.8731 2110.4514 2110.7115 2111.4918 2112.5322 2098.7469 2090.6838 2107.0701 2120.3352 
2048 2029 2112.012 2106.0297 2102.3883 2115.6534 2116.1736 2114.8731 2113.8327 2113.0524 2113.5726 2118.7746 2099.7873 2091.204 2108.8908 2122.1559 
2048 2030 2113.8327 2110.4514 2103.1686 2118.5145 2114.3529 2116.4337 2112.5322 2115.3933 2116.6938 2115.1332 2108.1105 2093.0247 2117.9943 2127.0978 
2049 2032 2116.9539 2114.8731 2108.3706 2126.0574 2103.9489 2117.7342 2107.0701 2116.1736 2120.8554 2117.7342 2113.3125 2095.6257 2121.1155 2128.1382 
2050 2032 2119.2948 2111.4918 2111.7519 2128.3983 2114.3529 2119.2948 2106.0297 2118.7746 2122.9362 2116.4337 2114.3529 2099.007 2121.1155 2129.4387 
2051 2033 2127.8781 2115.9135 2116.6938 2132.2998 2129.9589 2126.3175 2114.0928 2125.017 2126.3175 2112.012 2120.5953 2108.3706 2127.8781 2138.022 
2053 2032 2129.1786 2119.0347 2116.9539 2133.3402 2126.0574 2126.0574 2116.1736 2122.416 2121.8958 2113.3125 2117.7342 2107.8504 2126.5776 2141.9235 
2053 2033 2126.5776 2120.0751 2116.4337 2133.6003 2112.7923 2120.8554 2111.2317 2116.4337 2118.2544 2121.8958 2115.1332 2104.4691 2123.4564 2138.022 
2052 2035 2128.3983 2121.6357 2121.6357 2136.2013 2105.2494 2121.6357 2111.7519 2117.7342 2120.5953 2117.4741 2119.2948 2108.8908 2127.0978 2140.623 
2053 2036 2130.9993 2121.1155 2123.7165 2139.0624 2111.4918 2126.0574 2118.5145 2120.8554 2122.1559 2107.5903 2121.8958 2112.2721 2129.1786 2140.8831 
2053 2036 2129.6988 2118.7746 2124.7569 2138.5422 2121.8958 2123.9766 2110.7115 2115.1332 2116.9539 2113.3125 2118.2544 2109.6711 2126.0574 2136.7215 
2055 2036 2133.3402 2123.1963 2128.9185 2142.7038 2127.3579 2124.4968 2108.6307 2116.1736 2120.3352 2127.618 2123.7165 2114.0928 2127.0978 2136.9816 
2053 2034 2136.7215 2124.7569 2131.2594 2142.4437 2115.9135 2126.5776 2121.6357 2123.7165 2123.1963 2122.9362 2125.017 2116.6938 2127.8781 2144.5245 
2052 2033 2139.0624 2123.7165 2129.4387 2141.1432 2106.0297 2126.5776 2123.7165 2120.5953 2118.7746 2114.613 2120.5953 2113.3125 2128.1382 2142.1836 
2053 2033 2140.623 2123.9766 2132.2998 2144.7846 2116.6938 2127.0978 2112.5322 2113.0524 2115.9135 2119.815 2121.8958 2114.0928 2128.1382 2139.5826 
2050 2032 2141.1432 2126.0574 2133.3402 2148.426 2132.82 2131.2594 2112.5322 2118.5145 2122.1559 2122.6761 2127.0978 2117.214 2129.4387 2141.1432 
2051 2035 2140.1028 2126.0574 2130.219 2143.224 2128.6584 2131.5195 2117.4741 2122.416 2124.7569 2114.3529 2123.7165 2113.5726 2129.1786 2143.224 
2051 2035 2139.0624 2123.7165 2126.0574 2137.5018 2117.7342 2127.0978 2116.1736 2116.6938 2119.815 2114.613 2117.214 2107.8504 2124.4968 2139.3225 
2051 2036 2138.022 2119.5549 2125.7973 2135.9412 2122.416 2125.7973 2114.8731 2114.3529 2117.4741 2119.0347 2115.9135 2107.3302 2121.6357 2138.2821 
2048 2037 2133.6003 2114.0928 2120.5953 2132.0397 2125.2771 2125.7973 2116.1736 2117.9943 2116.4337 2117.4741 2112.7923 2104.7292 2119.0347 2132.82 
2048 2036 2127.3579 2108.1105 2113.5726 2123.9766 2117.4741 2123.1963 2119.0347 2118.2544 2113.8327 2107.0701 2105.2494 2098.2267 2115.1332 2126.8377 
2048 2035 2124.4968 2105.5095 2111.4918 2122.416 2104.7292 2121.1155 2122.9362 2116.1736 2112.012 2099.7873 2102.1282 2099.007 2113.8327 2128.1382 
2045 2033 2123.7165 2107.0701 2110.7115 2125.7973 2104.9893 2122.6761 2121.3756 2116.9539 2113.5726 2110.1913 2105.2494 2104.9893 2116.9539 2128.9185 
2046 2032 2122.416 2098.7469 2104.9893 2115.9135 2112.5322 2122.9362 2127.618 2123.9766 2117.7342 2109.9312 2103.9489 2109.411 2114.613 2129.9589 
2046 2032 2124.4968 2103.4287 2108.1105 2120.8554 2104.7292 2123.4564 2126.5776 2117.9943 2115.3933 2108.8908 2109.1509 2120.3352 2119.815 2135.1609 
2046 2033 2122.1559 2103.1686 2110.9716 2125.7973 2123.7165 2123.4564 2113.3125 2116.4337 2117.7342 2117.4741 2112.2721 2127.3579 2122.6761 2132.2998 
2045 2032 2122.6761 2100.0474 2115.1332 2125.017 2129.6988 2123.9766 2115.9135 2122.6761 2121.1155 2114.8731 2110.9716 2129.1786 2121.8958 2132.82 
2044 2033 2125.5372 2103.4287 2115.3933 2122.6761 2104.4691 2124.2367 2132.2998 2128.3983 2122.6761 2114.0928 2112.5322 2132.2998 2123.4564 2134.1205 
2044 2033 2125.7973 2105.5095 2114.8731 2122.6761 2100.3075 2123.7165 2122.6761 2126.0574 2122.9362 2117.9943 2112.7923 2135.9412 2125.017 2136.7215 
2043 2033 2128.3983 2105.2494 2117.7342 2128.3983 2126.0574 2125.017 2107.8504 2120.8554 2124.2367 2112.012 2116.4337 2141.6634 2129.1786 2138.022 
2043 2035 2128.9185 2104.209 2120.0751 2130.4791 2125.7973 2123.9766 2114.613 2118.7746 2120.5953 2110.4514 2117.7342 2142.9639 2131.5195 2139.3225 
2046 2036 2126.3175 2108.1105 2116.4337 2130.219 2109.411 2125.5372 2124.7569 2123.7165 2122.1559 2125.7973 2114.8731 2138.5422 2126.0574 2135.421 
2044 2039 2122.416 2106.5499 2112.7923 2129.4387 2120.0751 2126.8377 2122.416 2124.2367 2125.2771 2124.7569 2111.7519 2132.82 2121.6357 2132.2998 
2046 2038 2120.0751 2099.2671 2109.6711 2128.6584 2133.6003 2124.4968 2121.6357 2122.416 2125.7973 2110.4514 2116.6938 2131.5195 2126.8377 2130.219 
2047 2035 2122.416 2102.3883 2112.7923 2129.1786 2109.1509 2122.416 2124.4968 2124.4968 2128.3983 2115.3933 2121.3756 2134.3806 2129.6988 2134.3806 
2050 2034 2121.8958 2107.3302 2112.2721 2130.219 2101.0878 2123.7165 2123.9766 2125.2771 2130.4791 2128.6584 2118.5145 2130.7392 2125.017 2135.421 
2052 2032 2113.3125 2096.1459 2104.209 2126.0574 2133.8604 2122.9362 2120.8554 2121.3756 2126.5776 2124.4968 2113.5726 2119.2948 2122.416 2129.1786 
2053 2034 2110.7115 2093.0247 2102.3883 2128.6584 2134.9008 2122.1559 2120.3352 2120.5953 2124.2367 2112.2721 2116.9539 2116.9539 2124.2367 2125.017 
2052 2036 2115.9135 2104.7292 2106.0297 2130.219 2105.2494 2124.2367 2124.7569 2123.9766 2127.0978 2115.1332 2117.4741 2120.5953 2123.1963 2128.1382 
2047 2040 2110.4514 2096.6661 2097.1863 2114.0928 2106.5499 2122.1559 2125.017 2123.1963 2125.7973 2119.815 2104.7292 2111.7519 2115.9135 2127.0978 
2047 2043 2105.2494 2087.0424 2094.5853 2110.4514 2120.8554 2120.0751 2123.1963 2120.5953 2126.8377 2118.2544 2106.81 2109.1509 2117.4741 2123.7165 
2044 2045 2108.6307 2093.805 2105.7696 2126.8377 2122.6761 2122.416 2123.4564 2120.5953 2128.1382 2120.3352 2122.1559 2120.0751 2125.7973 2125.2771 
2044 2043 2113.0524 2101.0878 2111.7519 2134.9008 2121.8958 2126.5776 2125.7973 2122.1559 2129.4387 2122.1559 2125.017 2125.017 2128.1382 2126.0574 
2042 2039 2110.4514 2096.406 2107.8504 2126.8377 2117.9943 2125.5372 2125.7973 2120.3352 2128.1382 2119.5549 2114.8731 2116.6938 2120.8554 2123.9766 
2041 2040 2110.4514 2095.8858 2106.2898 2125.017 2116.9539 2124.4968 2128.1382 2120.0751 2128.9185 2117.214 2115.1332 2115.1332 2118.5145 2123.4564 
2044 2041 2114.0928 2100.3075 2109.411 2127.3579 2114.3529 2126.0574 2129.9589 2121.6357 2131.2594 2114.0928 2117.7342 2118.7746 2121.1155 2128.9185 
2044 2043 2115.1332 2100.3075 2109.6711 2127.3579 2119.815 2126.8377 2129.1786 2122.416 2133.3402 2119.0347 2117.214 2118.2544 2121.8958 2126.5776 
2045 2044 2110.1913 2090.9439 2110.4514 2124.2367 2132.82 2123.7165 2126.0574 2119.2948 2127.618 2121.8958 2112.2721 2113.0524 2118.5145 2124.4968 
2045 2045 2101.0878 2078.199 2107.3302 2115.9135 2129.9589 2120.0751 2120.8554 2114.3529 2116.9539 2113.8327 2099.7873 2103.6888 2109.411 2127.0978 
2041 2048 2108.6307 2090.1636 2097.4464 2123.4564 2122.1559 2126.0574 2128.9185 2117.4741 2126.5776 2119.2948 2107.3302 2104.9893 2110.1913 2107.8504 
2038 2050 2114.0928 2094.0651 2114.3529 2122.6761 2113.0524 2124.4968 2128.1382 2115.6534 2126.3175 2117.4741 2109.1509 2109.411 2115.3933 2125.5372 
2034 2054 2095.3656 2067.2748 2120.0751 2103.6888 2091.7242 2111.2317 2107.5903 2110.4514 2098.7469 2092.2444 2086.5222 2096.6661 2102.6484 2163.5118 
2026 2066 2110.7115 2087.0424 2100.8277 2124.2367 2110.1913 2123.7165 2123.9766 2126.3175 2121.8958 2112.2721 2110.9716 2106.81 2113.0524 2132.5599 
2022 2072 2126.5776 2107.0701 2102.9085 2140.1028 2138.8023 2130.9993 2140.3629 2128.9185 2145.0447 2135.421 2128.9185 2119.0347 2124.7569 2107.0701 
2016 2087 2117.4741 2090.9439 2117.4741 2121.8958 2129.6988 2122.416 2132.2998 2119.5549 2134.3806 2122.1559 2115.1332 2114.8731 2120.5953 2127.8781 
2013 2095 2109.6711 2074.5576 2116.9539 2108.1105 2110.9716 2116.4337 2121.8958 2118.7746 2124.2367 2108.6307 2107.3302 2111.4918 2114.613 2145.3048 
2012 2109 2125.7973 2096.406 2110.4514 2129.9589 2122.6761 2127.3579 2136.9816 2128.9185 2141.9235 2130.219 2127.618 2124.2367 2122.9362 2122.416 
2010 2114 2120.8554 2094.0651 2117.7342 2120.8554 2120.0751 2123.4564 2133.0801 2121.6357 2135.421 2127.3579 2118.2544 2120.3352 2119.815 2134.1205 
2010 2127 2117.214 2085.2217 2107.0701 2107.3302 2117.4741 2120.5953 2127.3579 2123.1963 2134.3806 2117.7342 2117.4741 2115.6534 2120.3352 2135.9412 
2011 2133 2124.7569 2091.4641 2113.0524 2120.8554 2121.3756 2124.2367 2133.3402 2125.2771 2139.8427 2118.7746 2127.618 2124.4968 2127.0978 2133.3402 
2013 2143 2122.6761 2095.3656 2122.416 2134.3806 2117.9943 2124.4968 2130.9993 2119.2948 2130.7392 2120.5953 2122.9362 2125.7973 2120.5953 2134.6407 
2014 2149 2132.0397 2110.7115 2130.219 2144.5245 2125.5372 2130.219 2125.7973 2123.7165 2138.2821 2129.9589 2131.2594 2134.6407 2126.0574 2137.5018 
2017 2159 2134.1205 2107.5903 2132.5599 2145.825 2140.1028 2132.2998 2120.0751 2125.017 2139.0624 2133.6003 2130.219 2135.6811 2128.9185 2142.7038 
2019 2163 2128.1382 2099.5272 2128.1382 2144.0043 2136.2013 2130.7392 2126.3175 2122.416 2132.82 2122.6761 2122.9362 2129.6988 2124.4968 2138.2821 
2022 2166 2129.4387 2107.8504 2128.9185 2144.0043 2119.5549 2128.9185 2131.5195 2125.5372 2136.2013 2114.3529 2123.1963 2130.9993 2123.4564 2138.022 
2025 2173 2131.5195 2110.9716 2129.4387 2144.7846 2127.0978 2130.4791 2131.2594 2126.3175 2138.8023 2121.3756 2120.8554 2131.7796 2121.8958 2137.2417 
2024 2174 2127.8781 2098.7469 2126.0574 2139.8427 2137.2417 2131.2594 2135.421 2122.1559 2132.5599 2116.4337 2116.4337 2126.3175 2120.5953 2135.6811 
2028 2173 2131.2594 2102.3883 2128.1382 2141.1432 2119.2948 2129.6988 2138.2821 2127.3579 2134.1205 2113.5726 2121.3756 2127.618 2124.2367 2140.623 
2027 2171 2134.3806 2113.8327 2130.219 2147.3856 2108.8908 2128.3983 2133.3402 2126.8377 2134.6407 2127.618 2118.2544 2128.9185 2121.1155 2140.623 
2032 2160 2129.1786 2105.2494 2124.7569 2143.224 2128.9185 2128.6584 2131.5195 2114.0928 2125.017 2127.3579 2111.2317 2123.9766 2115.9135 2135.1609 
2034 2155 2130.9993 2101.0878 2127.0978 2140.623 2138.5422 2130.219 2129.9589 2114.613 2124.7569 2119.815 2122.416 2127.3579 2124.4968 2137.7619 
2037 2150 2136.9816 2110.9716 2133.6003 2147.3856 2125.5372 2130.9993 2122.6761 2122.6761 2132.82 2124.2367 2132.0397 2133.8604 2132.2998 2140.8831 
2038 2147 2133.8604 2110.9716 2129.1786 2147.6457 2120.0751 2129.4387 2122.6761 2120.3352 2132.0397 2121.3756 2122.6761 2129.1786 2126.0574 2136.2013 
2041 2149 2127.618 2103.9489 2124.2367 2140.3629 2127.3579 2129.1786 2128.1382 2117.7342 2126.3175 2116.4337 2118.5145 2122.9362 2122.6761 2133.3402 
2042 2151 2125.5372 2096.9262 2123.7165 2133.6003 2136.4614 2130.7392 2127.0978 2117.7342 2124.7569 2118.2544 2119.5549 2121.1155 2125.2771 2132.82 
2041 2160 2123.7165 2093.2848 2119.5549 2133.0801 2137.7619 2129.1786 2124.7569 2115.6534 2125.5372 2114.3529 2114.3529 2118.2544 2123.1963 2129.6988 
2040 2166 2127.8781 2104.209 2120.0751 2142.1836 2126.5776 2129.1786 2130.219 2119.0347 2127.8781 2118.5145 2114.3529 2120.3352 2122.6761 2133.0801 
2041 2173 2132.0397 2112.012 2125.2771 2147.3856 2120.0751 2133.8604 2134.6407 2124.2367 2129.6988 2129.6988 2119.0347 2124.2367 2126.3175 2136.7215 
2040 2179 2128.1382 2100.8277 2124.4968 2139.3225 2121.6357 2133.3402 2132.2998 2121.8958 2127.3579 2125.5372 2117.214 2123.7165 2127.3579 2136.4614 
2039 2179 2126.0574 2093.805 2121.1155 2136.7215 2125.5372 2128.3983 2133.0801 2121.1155 2128.3983 2119.2948 2114.8731 2120.5953 2125.5372 2137.7619 
2042 2175 2130.219 2100.3075 2121.8958 2141.9235 2131.2594 2131.7796 2140.1028 2122.1559 2129.9589 2117.9943 2113.3125 2118.2544 2125.2771 2139.5826 
2041 2172 2133.6003 2107.3302 2125.2771 2143.7442 2129.4387 2138.2821 2138.5422 2122.6761 2129.1786 2116.4337 2117.9943 2120.3352 2127.8781 2139.3225 
2041 2164 2132.5599 2110.7115 2130.4791 2148.6861 2130.7392 2137.7619 2126.5776 2123.7165 2134.3806 2126.8377 2131.7796 2127.0978 2133.0801 2142.1836 
2041 2162 2131.7796 2111.2317 2130.219 2155.1886 2144.2644 2136.4614 2124.2367 2123.9766 2138.8023 2133.8604 2129.1786 2125.2771 2132.82 2142.1836 
2043 2154 2136.2013 2113.5726 2127.8781 2155.4487 2139.5826 2140.623 2134.1205 2125.017 2134.3806 2121.8958 2115.3933 2120.3352 2129.4387 2140.8831 
2043 2150 2139.8427 2117.4741 2131.7796 2156.229 2121.6357 2141.9235 2136.7215 2125.7973 2129.9589 2119.815 2124.4968 2128.1382 2133.3402 2144.7846 
2043 2144 2138.5422 2114.3529 2136.2013 2159.3502 2125.017 2138.5422 2131.2594 2124.2367 2130.7392 2134.1205 2140.3629 2138.022 2140.1028 2146.8654 
2043 2141 2139.8427 2108.6307 2136.4614 2154.9285 2130.219 2138.022 2133.3402 2127.0978 2133.8604 2138.022 2137.7619 2140.1028 2140.8831 2147.3856 
2043 2139 2142.7038 2104.209 2136.4614 2147.6457 2134.6407 2139.8427 2137.5018 2129.6988 2134.6407 2125.7973 2136.7215 2141.4033 2140.623 2150.7669 
2045 2134 2140.3629 2101.0878 2137.7619 2148.9462 2147.1255 2139.5826 2133.8604 2124.4968 2130.4791 2116.1736 2141.4033 2142.7038 2142.4437 2150.7669 
2047 2133 2141.6634 2111.2317 2139.0624 2155.7088 2132.82 2138.8023 2133.0801 2124.2367 2131.5195 2123.1963 2140.8831 2141.6634 2145.5649 2149.2063 
2048 2134 2143.7442 2117.214 2139.3225 2153.8881 2113.0524 2137.7619 2138.2821 2130.4791 2139.3225 2138.5422 2142.1836 2139.8427 2147.1255 2151.5472 
2048 2133 2135.9412 2098.4868 2135.6811 2143.224 2135.6811 2137.5018 2138.5422 2129.1786 2139.0624 2136.4614 2142.9639 2136.4614 2144.7846 2149.2063 
2050 2132 2129.9589 2089.1232 2132.0397 2141.4033 2150.2467 2138.8023 2135.6811 2126.0574 2132.2998 2128.6584 2140.1028 2133.8604 2142.9639 2144.0043 
2050 2134 2133.3402 2104.7292 2129.4387 2147.9058 2126.3175 2138.5422 2137.7619 2126.8377 2130.9993 2134.1205 2141.1432 2133.6003 2144.0043 2144.7846 
2050 2139 2134.6407 2108.6307 2126.8377 2147.6457 2119.2948 2138.022 2137.5018 2124.2367 2132.0397 2126.5776 2142.7038 2131.5195 2143.224 2146.0851 
2049 2141 2129.6988 2091.9843 2125.017 2140.8831 2136.9816 2135.9412 2132.5599 2120.5953 2128.1382 2118.5145 2136.4614 2127.618 2137.5018 2142.4437 
2048 2140 2127.618 2086.2621 2124.7569 2137.2417 2135.9412 2132.0397 2130.7392 2120.0751 2123.4564 2132.5599 2129.4387 2124.7569 2134.1205 2141.9235 
2049 2135 2132.5599 2101.0878 2127.8781 2142.4437 2117.4741 2133.8604 2135.6811 2123.1963 2126.8377 2139.8427 2133.0801 2125.2771 2139.3225 2143.7442 
2052 2128 2135.9412 2109.1509 2132.82 2149.7265 2120.8554 2140.623 2140.3629 2129.4387 2137.7619 2130.219 2142.4437 2129.1786 2143.7442 2145.0447 
2053 2122 2130.9993 2097.1863 2133.0801 2146.0851 2142.1836 2138.8023 2139.0624 2131.2594 2138.022 2128.3983 2144.0043 2128.6584 2140.3629 2144.7846 
2055 2115 2128.3983 2091.9843 2132.0397 2140.623 2138.8023 2132.2998 2137.7619 2130.4791 2131.5195 2131.2594 2139.3225 2126.3175 2137.7619 2144.2644 
2057 2102 2134.6407 2101.3479 2131.2594 2142.4437 2117.7342 2134.3806 2139.0624 2130.7392 2133.6003 2125.7973 2140.1028 2130.219 2140.3629 2146.8654 
2058 2094 2137.5018 2102.3883 2130.9993 2144.0043 2121.3756 2139.0624 2138.2821 2129.4387 2138.8023 2128.3983 2142.9639 2133.6003 2140.623 2148.426 
2060 2075 2134.3806 2089.6434 2127.8781 2139.5826 2141.4033 2138.8023 2139.3225 2130.4791 2135.9412 2131.7796 2134.9008 2124.2367 2134.1205 2144.0043 
2059 2065 2134.3806 2085.2217 2123.4564 2136.7215 2142.4437 2136.7215 2142.1836 2129.9589 2129.6988 2123.1963 2126.0574 2115.3933 2129.6988 2141.9235 
2060 2048 2142.4437 2099.7873 2129.9589 2144.7846 2127.0978 2139.3225 2136.7215 2125.2771 2132.5599 2125.5372 2134.6407 2123.4564 2136.2013 2148.9462 
2059 2043 2152.0674 2119.2948 2145.0447 2157.5295 2120.8554 2146.0851 2129.6988 2126.5776 2139.3225 2136.7215 2149.2063 2134.9008 2148.1659 2157.0093 
2059 2039 2155.9689 2121.8958 2148.426 2161.9512 2135.9412 2148.6861 2133.8604 2133.0801 2140.8831 2141.6634 2148.1659 2136.7215 2150.5068 2159.6103 
2058 2041 2152.8477 2110.4514 2143.224 2157.7896 2152.5876 2146.3452 2139.3225 2133.0801 2138.5422 2142.7038 2146.0851 2138.2821 2148.426 2158.83 
2046 2041 2147.3856 2104.9893 2142.9639 2155.4487 2152.5876 2145.3048 2138.022 2130.4791 2138.5422 2131.5195 2151.5472 2137.2417 2149.7265 2157.0093 
2042 2038 2147.9058 2110.1913 2142.4437 2154.4083 2134.6407 2148.6861 2141.9235 2133.8604 2142.4437 2121.3756 2151.8073 2132.2998 2152.3275 2158.3098 
2041 2024 2144.7846 2107.0701 2135.421 2148.426 2120.8554 2146.3452 2148.9462 2133.6003 2141.6634 2132.2998 2144.5245 2128.9185 2147.3856 2154.9285 
2032 2022 2133.3402 2094.5853 2128.6584 2142.7038 2130.9993 2136.7215 2144.5245 2128.6584 2135.421 2137.5018 2141.6634 2123.7165 2140.8831 2146.8654 
2032 2028 2130.219 2091.204 2126.3175 2139.8427 2139.8427 2131.7796 2138.2821 2127.618 2132.2998 2120.5953 2144.2644 2116.4337 2142.7038 2146.6053 
2033 2035 2135.9412 2096.406 2125.5372 2138.8023 2126.8377 2134.9008 2137.7619 2129.6988 2135.421 2114.3529 2142.7038 2112.012 2144.7846 2148.1659 
2029 2032 2137.7619 2097.4464 2129.1786 2142.1836 2127.8781 2137.5018 2134.1205 2130.219 2138.022 2130.7392 2141.1432 2113.5726 2140.8831 2147.9058 
2021 2022 2141.4033 2096.406 2136.4614 2150.2467 2147.1255 2138.022 2130.7392 2130.7392 2138.2821 2139.3225 2147.1255 2120.0751 2142.1836 2152.0674 
2020 2021 2147.3856 2101.608 2139.3225 2153.628 2139.8427 2139.5826 2135.6811 2133.3402 2139.3225 2132.0397 2152.8477 2123.9766 2149.2063 2157.0093 
2019 2018 2142.9639 2104.9893 2134.9008 2148.6861 2123.1963 2138.2821 2140.1028 2132.5599 2138.022 2129.1786 2147.9058 2118.2544 2148.1659 2152.3275 
2019 2018 2137.7619 2102.9085 2132.0397 2145.0447 2131.5195 2139.3225 2138.022 2130.7392 2136.7215 2137.5018 2144.2644 2115.3933 2142.1836 2148.9462 
2015 2022 2144.2644 2101.8681 2134.6407 2147.3856 2139.3225 2144.5245 2140.623 2133.0801 2139.8427 2136.2013 2149.7265 2119.2948 2144.5245 2152.8477 
2014 2023 2147.1255 2102.1282 2134.6407 2147.6457 2123.4564 2143.4841 2150.7669 2142.7038 2144.0043 2125.5372 2150.7669 2117.214 2149.7265 2154.6684 
2009 2021 2140.623 2099.2671 2131.5195 2140.8831 2118.2544 2137.5018 2149.4664 2145.5649 2143.4841 2132.0397 2144.2644 2110.9716 2145.825 2150.7669 
2006 2020 2138.8023 2096.9262 2129.9589 2138.5422 2139.5826 2137.7619 2138.5422 2135.1609 2140.1028 2138.8023 2140.1028 2111.2317 2140.3629 2149.7265 
2004 2026 2139.3225 2093.805 2122.9362 2137.2417 2142.9639 2139.3225 2141.6634 2130.219 2136.4614 2132.2998 2135.421 2107.8504 2136.7215 2148.1659 
2008 2033 2135.9412 2091.204 2118.7746 2135.1609 2123.7165 2136.4614 2149.2063 2135.9412 2136.2013 2128.6584 2129.9589 2102.9085 2133.0801 2145.5649 
2005 2027 2141.1432 2100.8277 2129.6988 2144.2644 2121.8958 2139.3225 2142.1836 2141.4033 2143.224 2135.1609 2137.7619 2111.4918 2138.022 2151.027 
2003 2013 2150.5068 2106.5499 2136.2013 2149.7265 2142.7038 2143.7442 2133.3402 2142.4437 2149.4664 2138.8023 2148.6861 2120.0751 2147.3856 2158.5699 
2009 2012 2147.6457 2098.4868 2129.1786 2141.9235 2156.229 2143.224 2133.6003 2137.7619 2143.4841 2132.0397 2142.9639 2114.0928 2146.6053 2155.4487 
2014 2019 2144.2644 2101.608 2130.7392 2142.4437 2153.8881 2143.4841 2135.421 2130.7392 2134.9008 2129.1786 2136.4614 2112.2721 2140.8831 2151.5472 
2016 2023 2148.6861 2110.1913 2136.7215 2150.5068 2133.0801 2143.224 2137.5018 2130.7392 2137.7619 2135.6811 2141.1432 2119.5549 2140.8831 2153.8881 
2020 2026 2145.825 2100.5676 2129.9589 2145.0447 2122.416 2138.8023 2136.4614 2133.0801 2138.2821 2132.5599 2138.8023 2118.2544 2138.8023 2149.7265 
2026 2028 2137.7619 2090.4237 2125.7973 2136.7215 2148.6861 2137.2417 2131.5195 2128.1382 2131.2594 2121.3756 2130.4791 2116.6938 2135.1609 2143.7442 
2034 2034 2137.5018 2097.1863 2128.9185 2139.3225 2155.4487 2139.0624 2134.3806 2128.3983 2132.0397 2127.618 2131.2594 2126.0574 2136.9816 2146.0851 
2036 2034 2142.1836 2102.1282 2127.0978 2141.6634 2124.4968 2138.5422 2141.9235 2133.3402 2136.9816 2140.623 2136.2013 2130.9993 2138.022 2149.9866 
2041 2029 2136.9816 2090.4237 2120.3352 2133.6003 2120.0751 2135.1609 2139.0624 2130.219 2130.4791 2126.3175 2131.2594 2123.4564 2132.0397 2144.2644 
2043 2025 2127.0978 2080.2798 2116.6938 2126.0574 2140.623 2130.9993 2129.4387 2122.9362 2123.7165 2113.8327 2123.1963 2118.7746 2125.5372 2138.2821 
2046 2025 2125.017 2085.2217 2113.3125 2129.9589 2136.2013 2130.219 2130.219 2118.5145 2123.9766 2128.1382 2119.815 2120.5953 2122.6761 2137.2417 
2053 2030 2124.4968 2084.4414 2108.1105 2130.7392 2126.3175 2132.0397 2143.7442 2124.7569 2123.1963 2132.2998 2116.4337 2118.2544 2121.1155 2135.6811 
2056 2035 2128.3983 2083.1409 2111.7519 2128.1382 2130.219 2132.5599 2142.4437 2135.421 2127.618 2122.1559 2122.416 2119.2948 2125.5372 2140.1028 
2057 2046 2138.2821 2098.7469 2122.9362 2138.8023 2130.219 2136.7215 2129.4387 2132.82 2134.3806 2125.017 2138.5422 2130.7392 2135.6811 2150.5068 
2057 2052 2136.7215 2100.5676 2123.1963 2145.0447 2136.4614 2140.3629 2133.3402 2125.7973 2131.2594 2132.82 2138.8023 2131.5195 2135.9412 2149.2063 
2052 2058 2129.1786 2089.3833 2115.3933 2137.7619 2141.9235 2138.8023 2140.8831 2128.9185 2128.1382 2133.0801 2127.618 2123.1963 2129.9589 2140.1028 
2051 2056 2134.1205 2095.8858 2117.7342 2139.0624 2132.82 2136.4614 2132.82 2130.9993 2132.0397 2136.9816 2134.1205 2125.2771 2134.9008 2141.4033 
2032 2033 2136.2013 2096.406 2119.2948 2138.5422 2133.8604 2134.3806 2127.3579 2123.9766 2132.2998 2135.1609 2141.6634 2126.0574 2136.9816 2144.2644 
2033 2036 2129.9589 2084.1813 2112.012 2130.4791 2139.3225 2133.6003 2134.3806 2124.2367 2129.6988 2127.3579 2132.2998 2116.9539 2128.1382 2140.3629 
2037 2027 2133.3402 2089.6434 2112.7923 2135.1609 2136.9816 2138.022 2140.3629 2131.7796 2133.0801 2136.9816 2130.4791 2116.9539 2128.1382 2141.4033 
2032 2018 2134.1205 2094.5853 2115.9135 2139.0624 2145.5649 2138.8023 2137.7619 2128.9185 2132.0397 2138.5422 2135.6811 2120.3352 2135.1609 2141.9235 
2019 2014 2128.6584 2089.1232 2113.8327 2134.9008 2144.5245 2132.2998 2132.82 2122.9362 2127.618 2116.4337 2133.8604 2116.4337 2135.6811 2138.8023 
2018 2014 2132.2998 2097.7065 2116.4337 2143.4841 2120.0751 2130.4791 2129.4387 2126.5776 2130.219 2114.0928 2135.9412 2120.0751 2137.5018 2142.1836 
2011 2021 2124.4968 2092.7646 2103.1686 2142.4437 2142.9639 2129.9589 2144.2644 2126.0574 2128.6584 2134.1205 2128.3983 2115.3933 2128.1382 2136.9816 
2012 2022 2128.3983 2099.2671 2101.3479 2149.2063 2138.8023 2133.8604 2144.7846 2129.6988 2129.4387 2122.1559 2126.0574 2111.7519 2127.0978 2136.2013 
2018 2021 2142.1836 2121.6357 2111.4918 2170.7946 2134.9008 2139.8427 2133.8604 2141.1432 2144.2644 2130.4791 2139.3225 2121.3756 2139.3225 2145.0447 
2020 2015 2143.224 2124.2367 2111.4918 2179.8981 2171.3148 2139.5826 2122.1559 2133.3402 2146.3452 2136.2013 2144.7846 2126.0574 2144.0043 2146.8654 
2031 2017 2139.8427 2119.2948 2108.1105 2180.6784 2181.4587 2139.3225 2124.2367 2118.2544 2134.1205 2129.4387 2141.1432 2125.5372 2139.8427 2143.7442 
2033 2013 2139.3225 2126.3175 2106.2898 2182.7592 2142.1836 2136.7215 2131.7796 2119.5549 2130.219 2127.3579 2138.5422 2122.9362 2137.5018 2141.9235 
2033 2004 2133.0801 2122.6761 2099.007 2174.6961 2132.82 2130.219 2132.82 2126.3175 2134.6407 2130.219 2134.9008 2115.9135 2134.3806 2139.0624 
2036 2004 2126.0574 2103.4287 2093.2848 2161.1709 2161.9512 2128.1382 2129.4387 2123.7165 2132.0397 2119.815 2126.5776 2106.81 2128.3983 2134.1205 
2047 2004 2129.6988 2103.6888 2095.8858 2159.8704 2159.6103 2131.5195 2131.7796 2120.5953 2127.3579 2112.012 2121.8958 2101.8681 2126.8377 2133.0801 
2051 2004 2137.2417 2117.4741 2104.7292 2163.2517 2140.623 2133.3402 2137.7619 2126.5776 2132.2998 2126.3175 2125.5372 2101.3479 2130.4791 2137.5018 
2060 2006 2139.3225 2115.1332 2113.5726 2164.032 2155.9689 2136.9816 2139.8427 2132.82 2137.2417 2140.623 2132.0397 2105.7696 2133.0801 2142.1836 
2061 2007 2138.8023 2104.4691 2114.8731 2164.8123 2170.7946 2141.4033 2140.3629 2133.3402 2135.421 2132.82 2133.3402 2106.0297 2132.5599 2143.224 
2062 2006 2138.022 2106.5499 2111.7519 2167.1532 2149.7265 2136.9816 2137.7619 2130.4791 2133.3402 2131.2594 2129.4387 2099.5272 2129.1786 2140.623 
2061 2000 2135.9412 2112.012 2112.2721 2166.8931 2143.7442 2133.6003 2134.9008 2128.9185 2136.7215 2136.7215 2128.9185 2095.8858 2128.1382 2137.2417 
2061 2000 2130.7392 2102.9085 2108.8908 2156.229 2161.6911 2135.1609 2139.0624 2126.3175 2130.7392 2118.2544 2126.8377 2096.1459 2127.618 2134.3806 
2058 2004 2128.9185 2095.6257 2102.3883 2146.6053 2151.027 2133.0801 2141.9235 2125.2771 2124.2367 2113.8327 2123.1963 2096.9262 2126.5776 2134.9008 
2057 2007 2135.9412 2104.209 2109.411 2154.1482 2138.022 2130.219 2130.7392 2130.9993 2133.6003 2144.5245 2127.8781 2102.6484 2127.618 2139.3225 
2057 2009 2134.3806 2102.1282 2114.3529 2153.3679 2159.6103 2130.9993 2123.7165 2129.9589 2136.9816 2145.5649 2128.9185 2105.7696 2125.017 2138.2821 
2055 2007 2122.416 2084.1813 2102.6484 2136.2013 2166.8931 2130.7392 2131.7796 2123.7165 2129.1786 2116.6938 2123.4564 2101.608 2123.7165 2133.3402 
2055 2014 2121.3756 2080.2798 2096.9262 2140.1028 2147.6457 2129.6988 2132.0397 2123.9766 2129.6988 2121.8958 2127.618 2103.4287 2129.9589 2135.6811 
2057 2021 2129.6988 2090.6838 2105.5095 2156.7492 2142.1836 2130.219 2130.4791 2130.4791 2133.6003 2147.9058 2132.82 2109.6711 2131.5195 2138.2821 
2054 2016 2130.4791 2095.3656 2108.8908 2152.5876 2150.5068 2131.5195 2139.3225 2132.5599 2130.7392 2143.4841 2127.0978 2108.3706 2124.4968 2135.6811 
2050 2012 2128.9185 2092.7646 2108.6307 2140.1028 2156.4891 2134.1205 2138.8023 2130.4791 2130.7392 2123.9766 2126.8377 2107.3302 2126.0574 2137.7619 
2046 2012 2131.7796 2086.002 2111.7519 2141.1432 2156.229 2134.3806 2128.9185 2130.9993 2135.1609 2122.416 2133.6003 2111.4918 2133.6003 2142.1836 
2047 2015 2129.6988 2083.401 2106.5499 2143.4841 2148.426 2129.4387 2129.1786 2129.6988 2132.2998 2133.3402 2126.5776 2106.0297 2126.8377 2134.3806 
2045 2016 2128.9185 2091.7242 2101.608 2142.1836 2145.5649 2128.9185 2133.3402 2126.0574 2129.4387 2141.4033 2118.7746 2098.7469 2120.0751 2127.8781 
2043 2018 2130.219 2089.1232 2104.7292 2140.3629 2154.6684 2130.4791 2130.4791 2122.9362 2130.9993 2140.8831 2124.7569 2102.9085 2123.4564 2130.9993 
2044 2014 2129.6988 2075.8581 2107.0701 2139.8427 2164.8123 2130.219 2127.0978 2124.2367 2132.0397 2133.6003 2131.2594 2108.1105 2129.1786 2135.6811 
2043 2012 2132.0397 2082.6207 2108.6307 2144.2644 2166.3729 2131.2594 2130.219 2128.3983 2131.7796 2129.1786 2127.3579 2104.9893 2129.1786 2136.2013 
2043 2012 2135.421 2097.1863 2110.1913 2147.3856 2159.3502 2133.6003 2136.4614 2130.9993 2130.7392 2136.4614 2119.815 2101.3479 2123.7165 2132.82 
2038 2014 2135.1609 2093.0247 2107.8504 2146.3452 2151.027 2132.2998 2135.6811 2129.9589 2130.9993 2140.8831 2119.0347 2102.6484 2122.416 2130.9993 
2036 2014 2134.6407 2088.8631 2106.81 2149.7265 2154.4083 2130.9993 2125.7973 2126.3175 2129.6988 2131.7796 2125.7973 2105.2494 2127.618 2132.82 
2028 2011 2136.4614 2097.4464 2111.4918 2155.9689 2160.6507 2131.5195 2122.1559 2122.9362 2124.7569 2122.1559 2126.3175 2104.7292 2127.618 2134.3806 
2027 2010 2134.9008 2092.2444 2110.7115 2145.3048 2159.3502 2132.0397 2132.0397 2121.8958 2119.0347 2121.6357 2118.7746 2101.608 2122.1559 2133.3402 
2029 2012 2132.0397 2081.3202 2107.0701 2130.4791 2152.0674 2131.7796 2141.9235 2129.4387 2123.7165 2126.8377 2118.5145 2102.1282 2121.6357 2131.7796 
2031 2014 2132.5599 2092.2444 2109.9312 2146.8654 2152.3275 2131.5195 2137.5018 2133.8604 2131.2594 2132.5599 2122.416 2102.9085 2123.7165 2132.5599 
2030 2017 2131.5195 2095.1055 2112.2721 2162.2113 2165.3325 2130.219 2127.0978 2125.2771 2128.3983 2128.1382 2121.3756 2095.8858 2123.4564 2133.3402 
2026 2017 2130.4791 2078.9793 2109.411 2144.7846 2165.5926 2129.1786 2128.6584 2122.9362 2124.4968 2120.8554 2119.815 2088.0828 2122.6761 2131.7796 
2029 2016 2138.022 2082.6207 2114.613 2137.7619 2154.4083 2131.2594 2133.8604 2130.219 2128.9185 2130.9993 2125.7973 2092.2444 2124.7569 2135.6811 
2036 2013 2145.0447 2095.6257 2123.1963 2154.9285 2156.7492 2133.0801 2130.9993 2129.6988 2131.5195 2146.0851 2133.0801 2099.5272 2129.6988 2143.224 
2041 2023 2138.8023 2093.0247 2116.9539 2160.6507 2164.2921 2131.7796 2131.5195 2129.4387 2129.9589 2139.5826 2132.2998 2096.9262 2128.9185 2141.9235 
2043 2028 2131.2594 2090.6838 2108.6307 2149.7265 2155.7088 2128.6584 2135.6811 2134.9008 2130.4791 2119.2948 2126.0574 2092.7646 2125.2771 2136.7215 
2042 2029 2136.2013 2093.805 2114.3529 2147.3856 2148.426 2129.6988 2135.9412 2135.421 2131.5195 2121.8958 2128.9185 2097.9666 2128.9185 2140.8831 
2046 2028 2142.4437 2093.5449 2119.0347 2154.9285 2161.9512 2132.82 2135.421 2133.3402 2132.2998 2140.623 2135.9412 2103.1686 2133.6003 2145.5649 
2048 2025 2140.1028 2091.4641 2115.6534 2154.4083 2174.6961 2131.5195 2136.9816 2132.2998 2131.5195 2137.7619 2134.6407 2099.2671 2131.5195 2143.7442 
2054 2023 2139.3225 2092.2444 2114.613 2156.229 2159.8704 2132.2998 2141.1432 2133.3402 2130.219 2136.2013 2133.8604 2096.406 2130.7392 2143.4841 
2054 2022 2146.6053 2100.0474 2119.5549 2165.8527 2143.7442 2136.4614 2142.1836 2136.9816 2133.8604 2147.3856 2141.1432 2101.0878 2134.1205 2146.8654 
2058 2019 2146.8654 2094.3252 2119.0347 2147.1255 2164.2921 2134.3806 2139.3225 2140.623 2137.7619 2146.3452 2142.4437 2098.7469 2132.2998 2145.5649 
2060 2015 2139.3225 2077.6788 2111.7519 2121.6357 2177.037 2129.9589 2143.7442 2145.3048 2139.0624 2139.5826 2133.6003 2087.5626 2126.8377 2141.4033 
2062 2013 2140.3629 2086.5222 2114.613 2148.426 2160.9108 2133.3402 2147.9058 2144.0043 2138.2821 2142.9639 2132.82 2088.8631 2127.0978 2142.4437 
2064 2008 2146.0851 2106.0297 2127.3579 2183.2794 2160.1305 2137.7619 2141.6634 2138.5422 2136.2013 2156.7492 2141.6634 2101.8681 2130.9993 2145.0447 
2065 2007 2144.7846 2100.8277 2133.3402 2173.9158 2180.1582 2138.8023 2138.5422 2139.0624 2137.5018 2143.7442 2143.4841 2105.2494 2131.5195 2143.4841 
2064 2008 2144.7846 2099.7873 2134.3806 2167.9335 2178.8577 2138.8023 2136.4614 2137.2417 2136.9816 2080.2798 2141.9235 2102.3883 2132.82 2143.7442 
2065 2009 2148.9462 2113.3125 2139.5826 2181.1986 2153.3679 2137.7619 2130.9993 2128.6584 2132.0397 2036.0628 2141.1432 2105.7696 2134.6407 2146.0851 
2062 2012 2146.6053 2103.4287 2138.5422 2171.835 2152.5876 2138.8023 2135.421 2128.3983 2127.618 2052.9693 2132.5599 2106.0297 2129.9589 2144.0043 
2061 2013 2139.8427 2084.4414 2131.5195 2155.4487 2183.5395 2138.5422 2141.9235 2132.82 2125.2771 2064.4137 2125.7973 2100.8277 2123.7165 2141.6634 
2055 2016 2140.8831 2090.6838 2130.9993 2162.2113 2185.1001 2134.1205 2136.9816 2127.8781 2121.3756 2052.9693 2127.618 2099.7873 2122.416 2138.8023 
2053 2016 2146.3452 2101.608 2135.421 2170.2744 2151.027 2135.421 2137.7619 2128.1382 2123.7165 2066.7546 2126.3175 2102.3883 2121.8958 2137.7619 
2048 2017 2145.3048 2090.9439 2135.1609 2157.5295 2157.7896 2142.9639 2148.9462 2139.8427 2131.7796 2077.9389 2122.416 2103.6888 2121.8958 2140.1028 
2045 2016 2138.5422 2080.2798 2128.9185 2149.2063 2190.042 2144.2644 2153.628 2141.1432 2132.82 2069.8758 2123.7165 2103.1686 2123.7165 2139.3225 
2044 2018 2136.7215 2090.9439 2126.8377 2164.8123 2175.9966 2139.8427 2144.7846 2129.6988 2127.618 2068.5753 2126.5776 2103.4287 2124.2367 2135.6811 
2043 2019 2140.623 2099.007 2130.219 2170.7946 2145.5649 2137.2417 2136.7215 2127.8781 2125.017 2069.8758 2126.5776 2103.9489 2123.1963 2136.4614 
2043 2020 2141.6634 2088.8631 2127.618 2153.628 2153.1078 2136.4614 2142.9639 2136.4614 2128.6584 2071.9566 2125.7973 2104.4691 2123.9766 2136.4614 
2040 2013 2140.3629 2080.2798 2125.2771 2151.5472 2181.1986 2138.8023 2146.6053 2135.9412 2129.6988 2075.8581 2125.2771 2107.8504 2125.7973 2134.9008 
2035 2005 2139.8427 2087.0424 2128.6584 2164.5522 2179.3779 2141.9235 2138.2821 2126.8377 2118.7746 2073.2571 2122.416 2108.6307 2122.6761 2135.421 
2025 1987 2144.5245 2101.608 2132.82 2168.1936 2153.3679 2143.7442 2135.6811 2132.5599 2119.5549 2080.0197 2123.9766 2110.1913 2123.7165 2139.3225 
2022 1983 2142.4437 2097.1863 2126.5776 2153.8881 2147.9058 2139.0624 2141.6634 2139.3225 2128.9185 2079.4995 2123.9766 2108.6307 2124.4968 2135.1609 
2021 1990 2126.3175 2074.5576 2114.613 2140.1028 2154.9285 2129.6988 2138.5422 2125.017 2119.5549 2056.8708 2110.9716 2097.1863 2114.3529 2122.416 
2021 1997 2126.8377 2075.3379 2117.7342 2145.0447 2146.0851 2132.0397 2130.7392 2118.5145 2117.9943 2065.4541 2112.012 2097.7065 2112.5322 2124.2367 
2014 2011 2143.4841 2094.5853 2128.1382 2153.628 2146.8654 2138.8023 2128.3983 2129.9589 2135.9412 2097.9666 2130.219 2111.4918 2123.4564 2137.5018 
2012 2015 2144.2644 2092.5045 2126.3175 2157.0093 2169.234 2135.9412 2128.9185 2129.9589 2135.1609 2091.7242 2130.9993 2114.0928 2125.7973 2138.8023 
2010 2022 2139.0624 2084.4414 2119.815 2160.9108 2181.7188 2132.5599 2131.7796 2122.416 2122.6761 2069.8758 2124.7569 2110.7115 2122.416 2135.6811 
2010 2026 2136.2013 2087.5626 2111.7519 2155.9689 2174.6961 2124.2367 2124.4968 2118.5145 2119.2948 2067.2748 2125.5372 2106.81 2120.5953 2132.5599 
2010 2028 2116.4337 2075.598 2093.0247 2142.7038 2174.436 2103.1686 2108.1105 2107.3302 2108.8908 2067.0147 2115.1332 2090.9439 2108.6307 2118.2544 
2016 2031 2094.8454 2053.7496 2074.2975 2141.1432 2189.0016 2093.0247 2107.8504 2100.0474 2099.007 2062.593 2100.5676 2076.6384 2096.6661 2105.2494 
2017 2029 2096.406 2055.0501 2068.3152 2150.7669 2193.4233 2097.9666 2119.0347 2105.2494 2102.9085 2060.2521 2103.9489 2079.2394 2100.8277 2107.3302 
2018 2024 2102.9085 2070.396 2068.0551 2159.8704 2192.3829 2095.8858 2116.1736 2103.6888 2102.6484 2052.9693 2111.4918 2084.7015 2107.0701 2110.9716 
2020 2023 2095.6257 2066.2344 2060.2521 2160.6507 2204.6076 2087.8227 2110.4514 2098.4868 2096.1459 2056.3506 2104.4691 2080.0197 2099.7873 2104.9893 
2025 2021 2085.2217 2051.4087 2045.1663 2152.0674 2222.2944 2084.7015 2115.6534 2094.5853 2089.6434 2060.7723 2092.2444 2070.1359 2089.6434 2098.2267 
2028 2023 2084.1813 2055.0501 2039.4441 2155.9689 2226.456 2086.5222 2116.6938 2088.603 2083.6611 2055.5703 2091.204 2068.5753 2088.3429 2098.7469 
2032 2028 2088.0828 2067.795 2042.3052 2168.1936 2213.7111 2087.0424 2110.7115 2088.603 2081.8404 2059.4718 2097.4464 2073.5172 2092.2444 2101.8681 
2035 2029 2087.0424 2068.3152 2041.0047 2167.9335 2209.5495 2086.5222 2113.5726 2093.2848 2082.3606 2065.7142 2094.8454 2071.9566 2091.9843 2099.2671 
2037 2031 2087.3025 2062.593 2040.7446 2157.0093 2223.3348 2091.9843 2123.7165 2098.4868 2088.0828 2068.0551 2096.1459 2072.7369 2091.9843 2099.7873 
2036 2033 2091.204 2064.4137 2042.3052 2152.0674 2218.9131 2094.0651 2123.1963 2101.608 2092.7646 2080.0197 2104.9893 2076.3783 2094.3252 2101.608 
2042 2033 2087.8227 2068.8354 2036.8431 2150.5068 2191.0824 2084.9616 2120.3352 2097.4464 2081.5803 2087.0424 2099.007 2070.396 2089.9035 2094.8454 
2046 2032 2083.9212 2064.9339 2032.4214 2142.9639 2187.9612 2081.8404 2121.6357 2089.9035 2069.0955 2066.7546 2090.6838 2063.3733 2084.9616 2089.9035 
2047 2031 2088.3429 2061.5526 2037.6234 2141.9235 2209.5495 2089.1232 2114.613 2090.1636 2076.8985 2059.992 2101.608 2070.1359 2090.6838 2094.5853 
2049 2032 2092.7646 2069.8758 2041.5249 2149.4664 2212.9308 2091.7242 2107.8504 2094.5853 2087.8227 2087.0424 2111.7519 2082.1005 2095.3656 2098.2267 
2050 2036 2089.3833 2072.4768 2037.1032 2143.224 2198.1051 2088.603 2116.1736 2094.5853 2084.9616 2096.9262 2105.7696 2083.9212 2091.7242 2095.8858 
2054 2044 2085.2217 2063.3733 2032.1613 2128.1382 2189.2617 2086.002 2121.1155 2092.5045 2080.2798 2082.8808 2102.6484 2080.8 2089.1232 2093.2848 
2055 2047 2086.7823 2063.1132 2036.3229 2132.82 2199.9258 2085.7419 2111.7519 2093.0247 2084.4414 2081.3202 2105.5095 2085.2217 2091.204 2094.5853 
2055 2043 2085.4818 2062.593 2039.184 2133.3402 2215.7919 2086.7823 2112.5322 2092.7646 2085.2217 2086.2621 2101.608 2088.3429 2090.1636 2092.7646 
2056 2041 2088.8631 2066.7546 2039.184 2125.2771 2203.3071 2088.603 2124.2367 2093.0247 2081.0601 2090.1636 2104.4691 2089.1232 2092.7646 2093.805 
2061 2036 2100.0474 2090.1636 2046.2067 2138.2821 2191.0824 2095.6257 2124.2367 2094.5853 2084.1813 2093.2848 2115.3933 2096.6661 2100.0474 2101.608 
2063 2035 2097.7065 2093.805 2043.6057 2143.4841 2215.0116 2098.4868 2116.1736 2096.406 2090.4237 2090.4237 2108.8908 2095.1055 2096.406 2100.5676 
2064 2034 2084.7015 2073.7773 2033.2017 2128.3983 2228.0166 2091.4641 2115.6534 2097.1863 2090.6838 2092.7646 2095.8858 2082.3606 2084.7015 2090.6838 
2065 2036 2086.002 2079.2394 2035.8027 2125.2771 2211.6303 2093.0247 2122.6761 2097.7065 2089.6434 2093.805 2104.7292 2082.8808 2088.8631 2091.204 
2060 2033 2103.1686 2104.9893 2051.4087 2136.9816 2209.8096 2106.81 2127.618 2104.9893 2097.1863 2089.6434 2123.9766 2098.7469 2107.3302 2104.7292 
2058 2025 2113.5726 2115.9135 2061.8127 2142.9639 2210.85 2113.3125 2127.0978 2110.1913 2103.6888 2094.8454 2125.2771 2106.2898 2111.4918 2111.4918 
2054 2021 2108.1105 2111.7519 2059.992 2137.7619 2200.7061 2107.5903 2122.9362 2102.1282 2096.9262 2101.0878 2112.2721 2097.4464 2100.8277 2106.0297 
2051 2020 2100.0474 2102.6484 2051.1486 2127.618 2211.8904 2106.81 2119.815 2094.5853 2089.1232 2091.7242 2106.81 2088.0828 2099.007 2102.3883 
2049 2023 2105.5095 2105.7696 2054.5299 2128.9185 2215.7919 2111.4918 2122.416 2103.4287 2097.4464 2087.0424 2116.4337 2092.2444 2106.2898 2107.0701 
2046 2028 2115.1332 2118.5145 2069.0955 2139.8427 2193.4233 2113.0524 2127.618 2116.6938 2111.2317 2103.9489 2124.7569 2100.5676 2109.9312 2111.7519 
2042 2025 2115.9135 2116.4337 2072.997 2136.7215 2197.3248 2114.613 2130.7392 2115.1332 2111.7519 2113.8327 2125.2771 2099.7873 2110.1913 2110.9716 
2035 2015 2116.1736 2111.7519 2071.1763 2133.0801 2214.2313 2117.214 2126.3175 2106.2898 2106.5499 2110.7115 2127.8781 2100.0474 2111.7519 2111.2317 
2033 2006 2115.3933 2113.3125 2072.4768 2138.2821 2201.2263 2114.613 2120.8554 2104.7292 2106.0297 2105.7696 2128.9185 2102.9085 2112.7923 2109.411 
2027 1993 2109.9312 2107.3302 2070.6561 2134.6407 2192.9031 2112.2721 2123.9766 2110.1913 2108.3706 2101.608 2127.0978 2102.6484 2112.5322 2106.5499 
2026 1988 2113.0524 2109.6711 2071.9566 2134.6407 2201.2263 2119.815 2125.7973 2111.2317 2110.7115 2105.2494 2128.6584 2106.5499 2112.7923 2109.411 
2024 1985 2122.416 2126.5776 2079.7596 2144.0043 2183.7996 2122.1559 2123.1963 2107.8504 2109.9312 2108.8908 2129.4387 2112.5322 2114.0928 2113.5726 
2021 1986 2123.4564 2127.8781 2081.3202 2138.5422 2163.2517 2116.6938 2122.1559 2104.7292 2106.5499 2106.81 2125.017 2110.7115 2113.8327 2111.2317 
2017 1993 2116.1736 2116.6938 2073.5172 2121.1155 2175.7365 2117.4741 2121.6357 2106.0297 2108.6307 2108.1105 2116.9539 2103.6888 2108.1105 2105.5095 
2013 1996 2110.9716 2117.4741 2066.4945 2117.214 2182.4991 2121.8958 2123.7165 2115.1332 2116.4337 2105.7696 2108.1105 2098.4868 2102.6484 2101.0878 
2010 2000 2116.1736 2127.618 2068.0551 2127.618 2158.3098 2123.4564 2127.3579 2114.613 2112.2721 2094.3252 2108.3706 2100.3075 2105.7696 2103.1686 
2003 2003 2122.416 2136.7215 2075.3379 2138.8023 2150.5068 2123.7165 2117.7342 2099.7873 2099.007 2094.8454 2115.1332 2106.81 2109.9312 2106.0297 
2000 2008 2115.9135 2136.9816 2069.3556 2136.2013 2161.1709 2120.0751 2113.5726 2095.1055 2095.8858 2106.2898 2107.3302 2101.8681 2102.1282 2100.3075 
1993 2016 2107.0701 2126.0574 2057.6511 2118.7746 2154.4083 2117.7342 2129.4387 2105.2494 2100.8277 2106.0297 2096.6661 2089.1232 2092.2444 2093.5449 
1990 2019 2115.1332 2128.9185 2064.6738 2119.0347 2157.0093 2124.4968 2130.4791 2111.4918 2106.5499 2106.0297 2105.5095 2097.4464 2099.7873 2100.5676 
1984 2023 2121.8958 2140.623 2073.2571 2137.7619 2167.4133 2125.2771 2112.2721 2110.9716 2110.9716 2105.2494 2113.0524 2110.9716 2108.6307 2106.0297 
1983 2021 2116.9539 2142.7038 2068.0551 2142.9639 2147.1255 2116.1736 2112.2721 2110.1913 2110.7115 2097.7065 2104.9893 2106.0297 2103.4287 2100.8277 
1986 2014 2118.7746 2142.9639 2064.1536 2134.3806 2134.6407 2112.7923 2119.2948 2104.9893 2104.9893 2100.3075 2093.805 2098.7469 2097.7065 2099.2671 
1988 2011 2120.3352 2140.623 2061.8127 2127.8781 2159.3502 2114.613 2112.2721 2099.7873 2105.2494 2099.007 2091.204 2103.4287 2097.1863 2102.6484 
1995 2006 2115.9135 2135.1609 2056.3506 2128.6584 2167.1532 2114.8731 2112.7923 2099.7873 2107.5903 2087.8227 2097.4464 2109.411 2096.9262 2102.1282 
1998 2004 2119.815 2140.8831 2060.5122 2130.4791 2149.7265 2114.613 2117.214 2100.0474 2104.7292 2098.2267 2105.7696 2117.9943 2100.3075 2102.6484 
2001 2004 2125.017 2149.7265 2065.194 2127.0978 2148.9462 2110.7115 2110.4514 2099.7873 2106.0297 2111.4918 2109.6711 2127.8781 2105.5095 2106.0297 
2007 2004 2122.416 2150.7669 2063.3733 2121.6357 2159.6103 2111.4918 2109.6711 2104.209 2112.2721 2102.3883 2111.2317 2132.5599 2106.5499 2105.5095 
2010 2006 2123.1963 2154.4083 2068.0551 2123.9766 2166.1128 2119.0347 2112.5322 2108.1105 2111.2317 2098.4868 2113.5726 2138.022 2107.3302 2105.7696 
2014 2007 2123.9766 2155.4487 2068.8354 2125.7973 2162.7315 2118.5145 2107.3302 2103.9489 2105.7696 2105.5095 2108.3706 2139.0624 2105.5095 2105.5095 
2016 2008 2116.9539 2150.5068 2063.8935 2116.4337 2153.628 2112.7923 2108.3706 2101.0878 2104.9893 2106.2898 2098.7469 2132.5599 2097.9666 2100.0474 
2022 2010 2115.6534 2141.4033 2073.2571 2110.7115 2159.8704 2116.6938 2108.6307 2107.3302 2106.81 2104.4691 2107.3302 2135.6811 2101.608 2100.3075 
2024 2006 2118.2544 2141.4033 2075.3379 2104.9893 2155.1886 2120.8554 2110.4514 2104.9893 2104.7292 2110.9716 2105.7696 2135.1609 2098.7469 2099.5272 
2027 2002 2112.012 2140.3629 2076.3783 2098.4868 2140.1028 2119.2948 2123.4564 2110.1913 2106.2898 2120.3352 2102.1282 2130.9993 2094.0651 2094.5853 
2030 1996 2109.1509 2128.1382 2085.2217 2107.0701 2148.1659 2116.9539 2117.214 2118.2544 2116.1736 2119.815 2110.9716 2136.7215 2099.5272 2097.1863 
2031 1995 2114.613 2120.8554 2096.1459 2113.3125 2166.1128 2122.1559 2102.6484 2110.7115 2117.4741 2117.9943 2112.7923 2143.7442 2099.7873 2101.3479 
2035 1994 2116.1736 2126.3175 2096.9262 2109.9312 2160.9108 2126.3175 2103.4287 2100.3075 2106.2898 2123.7165 2108.1105 2140.623 2094.5853 2098.7469 
2036 1993 2114.613 2132.2998 2094.8454 2113.0524 2164.2921 2116.9539 2107.8504 2106.0297 2105.2494 2117.4741 2115.6534 2138.2821 2100.0474 2099.5272 
2036 1992 2122.416 2129.6988 2103.9489 2117.214 2182.4991 2114.3529 2108.8908 2116.1736 2114.3529 2118.2544 2121.8958 2144.7846 2103.9489 2106.2898 
2038 1992 2131.7796 2120.5953 2113.5726 2118.5145 2188.4814 2126.3175 2114.0928 2117.7342 2119.2948 2141.6634 2119.5549 2151.2871 2099.7873 2109.6711 
2040 1989 2129.4387 2115.9135 2112.012 2134.3806 2192.643 2128.9185 2115.9135 2113.5726 2119.5549 2153.1078 2122.416 2151.8073 2102.3883 2108.1105 
2040 1981 2128.6584 2123.9766 2113.8327 2157.5295 2200.1859 2120.5953 2115.6534 2119.0347 2122.1559 2146.6053 2130.7392 2151.8073 2110.4514 2110.7115 
2039 1977 2133.6003 2122.9362 2120.3352 2161.431 2197.3248 2120.0751 2117.214 2128.9185 2124.4968 2145.3048 2130.9993 2151.027 2109.9312 2113.3125 
2040 1973 2134.3806 2110.7115 2121.3756 2161.9512 2207.7288 2125.017 2114.613 2121.3756 2120.5953 2148.1659 2130.219 2149.2063 2105.7696 2110.7115 
2040 1974 2134.3806 2110.9716 2120.8554 2173.1355 2228.2767 2124.2367 2113.5726 2115.1332 2120.3352 2145.825 2135.6811 2149.7265 2108.3706 2111.2317 
2038 1977 2138.2821 2114.613 2122.416 2183.7996 2224.1151 2126.3175 2114.8731 2129.9589 2130.9993 2142.4437 2137.2417 2149.4664 2113.3125 2116.1736 
2038 1981 2137.7619 2102.9085 2119.0347 2186.4006 2216.052 2126.3175 2111.7519 2134.3806 2134.3806 2141.1432 2135.421 2145.0447 2113.3125 2115.6534 
2035 1989 2126.8377 2081.5803 2111.2317 2174.1759 2222.0343 2116.6938 2106.0297 2115.6534 2120.8554 2144.0043 2133.3402 2139.0624 2107.5903 2109.6711 
2035 1994 2120.8554 2068.8354 2108.1105 2162.4714 2223.855 2112.2721 2105.2494 2109.9312 2113.8327 2147.1255 2134.3806 2135.6811 2107.5903 2109.411 
2034 2001 2120.3352 2072.4768 2104.9893 2171.835 2222.2944 2116.6938 2108.6307 2116.1736 2117.7342 2142.4437 2131.7796 2128.6584 2107.8504 2108.8908 
2032 2007 2112.5322 2074.8177 2096.406 2178.8577 2223.5949 2112.7923 2105.2494 2110.1913 2113.5726 2129.6988 2122.1559 2115.6534 2098.2267 2100.5676 
2032 2013 2101.0878 2061.5526 2086.7823 2158.0497 2212.4106 2100.8277 2100.0474 2106.2898 2109.411 2121.6357 2113.5726 2102.1282 2091.4641 2091.4641 
2028 2033 2099.7873 2046.4668 2086.2621 2138.8023 2204.6076 2102.3883 2107.5903 2118.2544 2117.4741 2124.2367 2117.4741 2100.0474 2096.406 2094.0651 
2025 2040 2110.9716 2060.5122 2099.7873 2154.1482 2219.4333 2112.5322 2112.012 2125.017 2121.8958 2129.9589 2131.5195 2110.9716 2106.2898 2105.5095 
2027 2047 2123.9766 2094.5853 2115.1332 2174.436 2221.5141 2116.6938 2102.1282 2113.5726 2114.613 2132.5599 2141.9235 2120.3352 2112.7923 2111.7519 
2028 2050 2125.5372 2089.6434 2116.6938 2163.2517 2205.9081 2122.1559 2104.4691 2109.411 2113.3125 2124.2367 2138.8023 2118.2544 2113.0524 2110.9716 
2031 2051 2114.0928 2050.6284 2108.1105 2140.8831 2199.4056 2119.0347 2114.8731 2114.8731 2115.9135 2115.1332 2129.1786 2110.9716 2108.1105 2109.411 
2034 2050 2107.3302 2040.2244 2104.4691 2136.2013 2212.6707 2100.8277 2108.8908 2111.7519 2112.2721 2115.6534 2125.2771 2104.9893 2101.0878 2104.9893 
2038 2054 2111.4918 2061.0324 2107.0701 2149.2063 2231.3979 2093.2848 2103.4287 2109.6711 2110.9716 2123.1963 2125.2771 2100.8277 2097.7065 2101.608 
2037 2055 2110.7115 2064.4137 2104.4691 2159.3502 2239.461 2101.0878 2109.1509 2114.613 2115.3933 2125.2771 2121.6357 2096.9262 2096.9262 2103.1686 
2035 2053 2102.1282 2054.0097 2096.6661 2158.0497 2241.5418 2102.3883 2109.411 2110.1913 2111.2317 2123.7165 2117.214 2089.6434 2096.6661 2102.3883 
2034 2050 2101.3479 2055.5703 2094.3252 2156.4891 2247.264 2100.8277 2106.0297 2104.7292 2104.9893 2132.5599 2118.7746 2086.2621 2098.4868 2100.8277 
2035 2048 2109.411 2059.2117 2097.7065 2160.9108 2250.3852 2108.3706 2110.7115 2112.2721 2109.411 2145.0447 2126.0574 2091.4641 2103.6888 2106.2898 
2037 2048 2114.0928 2061.5526 2100.3075 2162.9916 2248.3044 2114.3529 2116.9539 2116.1736 2114.3529 2147.6457 2131.7796 2095.8858 2108.1105 2110.9716 
2036 2048 2116.9539 2063.8935 2102.1282 2159.6103 2257.1478 2114.3529 2115.3933 2113.3125 2112.2721 2145.0447 2130.219 2094.8454 2106.81 2109.6711 
2035 2051 2122.416 2070.1359 2108.8908 2163.7719 2259.7488 2114.8731 2109.9312 2119.0347 2116.6938 2151.5472 2133.3402 2098.7469 2108.1105 2113.3125 
2037 2054 2124.7569 2075.598 2114.0928 2164.5522 2255.3271 2115.1332 2110.1913 2121.3756 2120.8554 2150.5068 2140.1028 2104.7292 2112.5322 2118.7746 
2037 2054 2120.0751 2071.6965 2109.9312 2155.1886 2263.3902 2114.613 2120.5953 2118.5145 2115.6534 2138.8023 2134.9008 2101.8681 2110.9716 2114.0928 
2038 2051 2122.6761 2072.7369 2112.2721 2155.9689 2274.3144 2118.2544 2124.2367 2123.1963 2116.9539 2148.6861 2133.6003 2102.6484 2111.2317 2113.5726 
2041 2045 2133.8604 2082.3606 2125.017 2160.9108 2280.2967 2123.9766 2114.0928 2128.1382 2127.0978 2164.8123 2143.224 2113.3125 2116.9539 2123.9766 
2045 2042 2132.82 2082.1005 2125.017 2154.4083 2278.476 2121.1155 2108.8908 2122.6761 2127.618 2161.6911 2141.6634 2114.8731 2117.4741 2124.4968 
2046 2040 2125.017 2075.3379 2116.4337 2143.4841 2272.7538 2117.7342 2113.8327 2119.5549 2122.1559 2153.3679 2132.82 2108.3706 2113.8327 2116.9539 
2046 2041 2126.5776 2075.3379 2119.0347 2139.5826 2267.5518 2121.8958 2116.1736 2122.1559 2121.3756 2149.7265 2131.5195 2108.8908 2113.5726 2117.7342 
2044 2043 2132.5599 2076.3783 2127.8781 2139.8427 2264.9508 2124.4968 2117.7342 2122.416 2123.1963 2145.5649 2133.3402 2115.3933 2115.3933 2123.4564 
2043 2043 2134.1205 2077.1586 2131.2594 2138.5422 2262.3498 2124.2367 2122.9362 2126.0574 2125.017 2145.0447 2134.1205 2119.0347 2116.4337 2125.2771 
2042 2043 2133.0801 2082.8808 2131.7796 2135.6811 2254.8069 2123.1963 2121.8958 2129.6988 2128.3983 2148.426 2138.022 2119.0347 2116.6938 2126.3175 
2041 2044 2132.5599 2087.0424 2135.6811 2140.623 2248.5645 2122.9362 2119.0347 2129.9589 2134.3806 2146.8654 2139.3225 2119.2948 2117.7342 2126.0574 
2040 2045 2130.7392 2084.9616 2140.1028 2145.825 2239.2009 2125.5372 2121.6357 2132.0397 2137.7619 2146.3452 2136.4614 2121.1155 2119.815 2124.2367 
2043 2044 2126.5776 2076.6384 2137.2417 2133.6003 2225.1555 2121.8958 2120.3352 2130.219 2134.1205 2145.825 2136.7215 2119.0347 2119.0347 2122.1559 
2044 2043 2121.8958 2064.9339 2128.9185 2119.5549 2224.6353 2114.613 2116.9539 2123.4564 2128.1382 2139.5826 2133.8604 2111.4918 2113.5726 2118.5145 
2046 2043 2121.8958 2061.2925 2128.6584 2118.5145 2220.2136 2117.7342 2120.5953 2121.3756 2126.5776 2135.1609 2127.618 2107.3302 2110.1913 2117.7342 
2048 2040 2125.2771 2072.4768 2133.8604 2124.7569 2195.5041 2122.9362 2124.7569 2124.7569 2128.9185 2135.1609 2127.618 2108.8908 2111.2317 2118.7746 
2049 2038 2124.4968 2082.6207 2135.1609 2132.82 2191.0824 2121.1155 2125.7973 2123.7165 2126.5776 2135.6811 2127.3579 2108.3706 2110.9716 2118.5145 
2048 2038 2125.5372 2081.0601 2138.2821 2135.421 2214.2313 2124.2367 2126.0574 2120.3352 2121.6357 2130.219 2127.3579 2109.6711 2112.012 2120.3352 
2046 2040 2134.1205 2081.5803 2147.6457 2132.82 2222.5545 2130.9993 2119.0347 2121.3756 2125.017 2125.2771 2136.7215 2117.4741 2119.2948 2127.3579 
2046 2040 2139.8427 2088.8631 2152.8477 2134.6407 2211.6303 2130.9993 2112.012 2125.2771 2130.9993 2130.9993 2142.4437 2121.3756 2124.4968 2131.7796 
2048 2043 2134.9008 2093.805 2149.7265 2137.2417 2198.1051 2129.6988 2118.2544 2130.4791 2132.82 2140.8831 2136.4614 2116.9539 2123.7165 2130.4791 
2046 2045 2130.4791 2089.3833 2144.7846 2130.219 2188.7415 2129.6988 2126.5776 2134.6407 2138.2821 2142.9639 2133.8604 2112.012 2121.8958 2128.6584 
2046 2045 2130.4791 2080.8 2141.9235 2123.4564 2196.5445 2126.0574 2125.017 2132.82 2140.1028 2138.2821 2134.3806 2109.1509 2119.2948 2127.0978 
2048 2044 2129.6988 2079.2394 2139.8427 2128.1382 2207.2086 2122.416 2121.8958 2126.0574 2129.6988 2139.0624 2128.6584 2104.7292 2116.9539 2126.3175 
2049 2043 2132.82 2084.1813 2140.1028 2132.0397 2203.5672 2123.4564 2124.7569 2128.3983 2126.8377 2148.9462 2129.4387 2106.0297 2120.0751 2130.7392 
2045 2043 2140.1028 2090.4237 2142.9639 2128.6584 2199.9258 2129.6988 2130.219 2136.7215 2136.7215 2151.027 2137.2417 2112.2721 2125.5372 2136.4614 
2046 2044 2139.8427 2094.0651 2144.7846 2133.3402 2205.1278 2130.9993 2130.9993 2131.2594 2136.2013 2142.4437 2134.1205 2114.3529 2122.1559 2136.4614 
2048 2045 2133.3402 2089.6434 2141.4033 2138.5422 2210.0697 2125.2771 2123.9766 2119.2948 2125.017 2143.224 2124.4968 2112.012 2113.5726 2131.2594 
2049 2045 2131.5195 2079.2394 2135.421 2120.8554 2207.2086 2121.6357 2122.416 2121.1155 2121.8958 2146.0851 2123.4564 2113.0524 2112.2721 2127.8781 
2053 2049 2131.7796 2078.199 2132.82 2109.1509 2206.1682 2122.6761 2128.6584 2128.1382 2127.0978 2137.2417 2123.7165 2119.2948 2114.613 2127.618 
2053 2050 2128.1382 2084.7015 2135.1609 2127.3579 2222.5545 2124.4968 2131.2594 2129.1786 2130.9993 2138.022 2121.3756 2125.017 2112.012 2128.9185 
2056 2057 2124.7569 2084.1813 2137.7619 2136.2013 2235.8196 2123.7165 2130.9993 2130.219 2131.5195 2147.6457 2121.8958 2127.8781 2110.9716 2129.1786 
2060 2059 2123.9766 2081.0601 2134.3806 2121.1155 2229.3171 2120.8554 2128.9185 2129.6988 2128.3983 2143.224 2120.8554 2127.3579 2112.5322 2127.3579 
2067 2064 2122.416 2074.8177 2127.3579 2109.9312 2231.9181 2118.7746 2126.8377 2122.6761 2124.2367 2134.1205 2118.5145 2125.7973 2111.2317 2126.0574 
2069 2065 2121.6357 2069.8758 2125.017 2111.4918 2258.7084 2122.416 2129.6988 2122.416 2126.5776 2139.0624 2119.5549 2126.5776 2110.4514 2125.7973 
2069 2066 2121.3756 2074.2975 2126.8377 2114.8731 2279.7765 2125.2771 2131.7796 2128.1382 2129.4387 2146.8654 2119.2948 2127.3579 2110.7115 2124.7569 
2062 2053 2120.0751 2081.0601 2125.2771 2117.9943 2286.5391 2122.416 2129.9589 2130.9993 2130.7392 2154.4083 2119.2948 2126.3175 2110.9716 2123.9766 
2055 2053 2121.3756 2087.0424 2125.7973 2123.4564 2299.0239 2121.8958 2131.2594 2133.3402 2135.421 2155.9689 2125.5372 2129.6988 2115.9135 2128.6584 
2044 2080 2124.7569 2088.603 2130.9993 2122.9362 2318.5314 2126.3175 2134.1205 2137.5018 2139.3225 2146.3452 2132.0397 2133.8604 2122.6761 2134.9008 
2040 2098 2125.017 2081.3202 2133.0801 2116.6938 2347.4025 2130.4791 2132.82 2138.2821 2139.3225 2148.6861 2131.5195 2131.2594 2123.4564 2135.6811 
2039 2093 2122.9362 2079.7596 2131.5195 2115.6534 2373.4125 2130.219 2131.5195 2137.2417 2139.8427 2163.2517 2128.3983 2128.3983 2121.3756 2133.3402 
2037 2086 2125.2771 2091.7242 2134.9008 2120.0751 2371.3317 2129.9589 2133.0801 2137.7619 2139.8427 2161.6911 2130.7392 2131.2594 2122.1559 2134.1205 
2041 2077 2127.8781 2093.805 2137.5018 2117.7342 2368.9908 2129.9589 2132.5599 2136.4614 2137.7619 2152.8477 2131.5195 2132.2998 2123.4564 2134.6407 
2046 2084 2125.7973 2083.9212 2133.3402 2108.8908 2377.8342 2129.6988 2131.7796 2138.2821 2138.5422 2156.4891 2125.5372 2128.6584 2122.9362 2132.5599 
2058 2113 2126.3175 2084.4414 2132.0397 2104.9893 2351.0439 2133.3402 2135.6811 2140.8831 2140.1028 2153.3679 2124.4968 2129.9589 2124.7569 2134.6407 
2058 2119 2131.2594 2094.5853 2134.9008 2116.4337 2301.1047 2138.2821 2139.3225 2136.4614 2139.3225 2148.1659 2130.9993 2135.421 2128.6584 2140.8831 
2048 2129 2132.82 2101.608 2135.1609 2130.4791 2273.0139 2136.7215 2138.5422 2133.3402 2137.7619 2155.4487 2132.0397 2138.2821 2130.219 2141.4033 
2044 2136 2130.4791 2096.406 2132.0397 2121.6357 2248.3044 2131.7796 2135.6811 2135.6811 2137.5018 2152.8477 2125.2771 2139.5826 2128.1382 2136.7215 
2045 2149 2126.5776 2084.4414 2127.618 2103.6888 2215.0116 2129.6988 2131.5195 2134.9008 2136.7215 2136.9816 2116.6938 2136.4614 2122.9362 2133.8604 
2047 2156 2122.416 2084.4414 2127.3579 2105.2494 2189.7819 2129.6988 2128.3983 2133.3402 2135.6811 2129.9589 2114.0928 2129.6988 2120.5953 2134.6407 
2049 2168 2123.1963 2095.1055 2134.1205 2114.0928 2166.8931 2129.6988 2130.4791 2137.2417 2137.2417 2123.1963 2119.5549 2130.7392 2123.4564 2136.7215 
2051 2177 2127.618 2096.9262 2141.4033 2113.3125 2147.1255 2131.5195 2133.8604 2139.8427 2139.5826 2112.7923 2121.3756 2136.4614 2124.4968 2136.7215 
2050 2187 2123.7165 2087.0424 2143.4841 2113.5726 2145.825 2134.9008 2134.9008 2137.7619 2139.5826 2113.5726 2118.2544 2134.3806 2121.6357 2133.8604 
2045 2205 2120.5953 2082.6207 2144.2644 2116.6938 2146.0851 2135.421 2136.2013 2138.8023 2138.5422 2113.5726 2118.5145 2132.82 2121.3756 2135.421 
2044 2214 2127.3579 2090.9439 2149.2063 2118.5145 2138.8023 2134.6407 2138.2821 2140.623 2139.8427 2107.0701 2120.8554 2140.8831 2125.2771 2142.9639 
2041 2228 2132.5599 2093.2848 2153.8881 2120.3352 2138.2821 2134.3806 2136.7215 2139.8427 2139.5826 2104.4691 2120.0751 2147.6457 2128.1382 2145.3048 
2039 2235 2130.219 2084.1813 2154.1482 2116.4337 2141.4033 2132.82 2131.7796 2138.2821 2136.9816 2107.3302 2120.8554 2143.224 2128.3983 2143.7442 
2034 2244 2129.6988 2089.3833 2153.8881 2117.214 2126.5776 2131.5195 2133.8604 2139.0624 2138.5422 2110.4514 2128.1382 2139.0624 2128.1382 2143.7442 
2031 2249 2130.7392 2103.6888 2156.7492 2123.7165 2108.3706 2131.2594 2137.2417 2139.8427 2141.4033 2114.8731 2131.2594 2141.6634 2128.1382 2142.9639 
2027 2255 2128.9185 2095.1055 2158.3098 2118.7746 2121.3756 2130.4791 2131.2594 2137.5018 2138.8023 2119.815 2126.0574 2140.1028 2125.2771 2140.3629 
2018 2257 2129.6988 2080.8 2158.3098 2114.3529 2133.3402 2130.9993 2129.6988 2137.5018 2136.9816 2117.214 2123.4564 2141.1432 2124.4968 2142.4437 
2012 2259 2130.7392 2084.4414 2155.4487 2113.5726 2112.7923 2132.0397 2135.421 2139.5826 2138.2821 2119.5549 2124.2367 2145.3048 2124.7569 2143.4841 
2005 2252 2128.9185 2089.6434 2152.0674 2107.0701 2102.1282 2128.6584 2133.0801 2137.7619 2134.9008 2123.1963 2122.416 2140.623 2122.1559 2140.3629 
2003 2247 2131.7796 2092.2444 2157.0093 2111.4918 2111.2317 2128.3983 2128.3983 2136.2013 2129.6988 2113.3125 2121.8958 2140.3629 2124.7569 2144.0043 
1996 2252 2135.421 2101.0878 2167.6734 2136.9816 2108.1105 2132.0397 2131.2594 2138.2821 2130.4791 2113.5726 2125.7973 2151.027 2131.7796 2151.027 
1991 2257 2132.0397 2093.805 2158.0497 2132.5599 2097.4464 2130.7392 2131.5195 2136.9816 2131.5195 2129.9589 2124.7569 2152.0674 2132.2998 2148.6861 
1981 2262 2129.1786 2076.1182 2139.8427 2098.2267 2098.2267 2128.9185 2129.1786 2132.2998 2128.3983 2127.618 2120.5953 2142.9639 2127.618 2143.7442 
1977 2261 2129.9589 2082.3606 2144.0043 2101.3479 2101.3479 2130.219 2130.4791 2130.9993 2126.8377 2111.7519 2118.2544 2140.8831 2123.4564 2144.2644 
1976 2254 2129.9589 2099.2671 2153.8881 2128.9185 2097.1863 2131.7796 2131.5195 2131.5195 2129.6988 2119.0347 2119.5549 2144.5245 2123.1963 2144.5245 
1979 2255 2130.4791 2102.1282 2145.3048 2135.6811 2083.6611 2130.9993 2130.7392 2131.7796 2133.0801 2128.3983 2122.416 2139.3225 2124.7569 2143.224 
1983 2247 2129.9589 2092.2444 2133.0801 2119.0347 2078.4591 2129.6988 2130.7392 2131.5195 2130.4791 2116.6938 2114.613 2119.0347 2120.3352 2140.623 
1983 2244 2132.0397 2078.7192 2124.2367 2094.8454 2088.603 2132.0397 2130.7392 2130.7392 2126.0574 2110.1913 2106.5499 2106.81 2117.9943 2140.623 
1984 2239 2135.9412 2083.6611 2112.2721 2103.4287 2080.8 2135.1609 2130.7392 2133.8604 2128.3983 2119.2948 2115.1332 2117.9943 2127.618 2145.3048 
1991 2233 2134.6407 2111.4918 2110.7115 2142.7038 2059.992 2133.0801 2132.5599 2139.5826 2134.6407 2119.815 2128.9185 2120.0751 2135.421 2148.1659 
1994 2227 2132.0397 2119.0347 2111.2317 2147.6457 2067.5349 2129.1786 2130.4791 2136.7215 2130.219 2114.613 2125.5372 2098.4868 2128.3983 2142.4437 
2003 2220 2132.5599 2100.5676 2104.9893 2124.4968 2090.4237 2129.1786 2125.2771 2129.1786 2121.8958 2121.6357 2114.8731 2088.0828 2119.815 2137.5018 
2007 2219 2127.3579 2093.5449 2101.8681 2131.7796 2094.0651 2129.9589 2123.4564 2128.6584 2123.1963 2126.3175 2117.4741 2089.3833 2120.5953 2135.1609 
2013 2220 2122.416 2091.204 2099.2671 2126.8377 2088.3429 2129.9589 2124.7569 2130.219 2126.0574 2115.3933 2121.3756 2079.7596 2123.7165 2133.6003 
2019 2227 2128.1382 2085.4818 2100.5676 2106.2898 2084.9616 2131.7796 2126.0574 2129.4387 2126.3175 2109.6711 2113.5726 2067.795 2124.7569 2136.2013 
2030 2248 2135.421 2092.2444 2106.5499 2130.4791 2073.7773 2131.7796 2128.1382 2131.5195 2130.7392 2119.0347 2112.012 2068.3152 2127.3579 2142.7038 
2033 2258 2137.5018 2105.7696 2100.3075 2152.3275 2065.4541 2130.9993 2127.8781 2133.0801 2132.2998 2124.4968 2126.8377 2074.8177 2129.6988 2146.3452 
2040 2266 2139.3225 2110.1913 2090.1636 2149.2063 2077.6788 2135.6811 2125.017 2129.6988 2127.618 2125.017 2132.5599 2067.2748 2132.82 2147.3856 
2045 2267 2140.3629 2097.1863 2095.3656 2147.9058 2086.7823 2137.5018 2123.1963 2126.3175 2126.0574 2123.4564 2121.1155 2038.9239 2135.6811 2146.8654 
2064 2251 2138.022 2087.8227 2096.6661 2144.2644 2076.8985 2133.6003 2123.1963 2127.3579 2126.3175 2116.9539 2121.8958 2019.4164 2134.6407 2143.7442 
2069 2238 2132.82 2104.4691 2082.3606 2153.1078 2070.1359 2133.8604 2126.3175 2129.4387 2125.7973 2116.4337 2130.9993 2026.179 2130.219 2140.3629 
2071 2227 2130.7392 2114.0928 2069.6157 2178.0774 2078.9793 2135.1609 2128.1382 2132.0397 2130.7392 2125.5372 2129.4387 2025.3987 2130.4791 2138.5422 
2075 2208 2130.4791 2098.4868 2068.3152 2190.5622 2086.7823 2131.7796 2123.9766 2131.2594 2131.5195 2124.2367 2127.0978 2001.9897 2132.82 2136.2013 
2075 2199 2128.1382 2088.0828 2075.8581 2185.6203 2076.8985 2129.6988 2120.5953 2125.017 2121.6357 2113.3125 2129.6988 1992.366 2130.219 2131.7796 
2076 2179 2122.416 2081.8404 2080.5399 2185.8804 2062.593 2128.1382 2121.3756 2118.7746 2112.7923 2114.613 2124.4968 1994.7069 2123.4564 2127.3579 
2075 2166 2115.1332 2071.9566 2074.5576 2192.9031 2050.3683 2121.6357 2121.1155 2114.8731 2112.7923 2115.9135 2114.613 1996.7877 2117.214 2121.8958 
2073 2145 2115.6534 2071.4364 2080.0197 2198.6253 2043.8658 2119.815 2119.5549 2113.5726 2114.613 2108.8908 2114.613 2009.2725 2119.815 2122.9362 
2071 2135 2117.4741 2072.4768 2093.5449 2219.4333 2050.3683 2125.017 2120.5953 2112.7923 2114.0928 2111.2317 2119.5549 2014.2144 2120.5953 2123.4564 
2070 2107 2111.7519 2061.8127 2086.5222 2251.1655 2054.5299 2126.8377 2122.6761 2112.7923 2115.1332 2124.2367 2123.1963 2009.2725 2114.0928 2115.6534 
2081 2079 2125.5372 2068.5753 2094.3252 2253.2463 2043.0855 2136.2013 2132.5599 2126.0574 2131.7796 2135.6811 2147.6457 2054.79 2136.4614 2131.5195 
2076 2069 2122.416 2074.5576 2102.9085 2275.875 2055.8304 2139.5826 2138.022 2126.5776 2131.7796 2138.2821 2155.4487 2038.1436 2131.5195 2128.9185 
2067 2049 2110.9716 2059.2117 2082.3606 2281.3371 2061.8127 2138.5422 2138.2821 2119.815 2125.5372 2139.8427 2153.3679 2024.8785 2122.416 2117.7342 
2065 2043 2115.3933 2042.3052 2075.3379 2261.8296 2069.8758 2139.0624 2136.9816 2120.5953 2128.9185 2140.623 2153.1078 2053.4895 2129.4387 2121.1155 
2064 2044 2117.9943 2050.3683 2090.9439 2290.1805 2079.2394 2141.6634 2140.623 2129.1786 2137.7619 2141.4033 2157.5295 2063.1132 2133.3402 2122.6761 
2061 2050 2109.1509 2071.6965 2091.9843 2329.7157 2064.1536 2142.4437 2143.4841 2129.9589 2137.7619 2139.0624 2159.8704 2028.78 2123.9766 2113.8327 
2061 2052 2106.2898 2070.396 2083.1409 2308.3875 2046.2067 2140.8831 2140.8831 2122.1559 2131.2594 2133.0801 2151.5472 2011.6134 2117.7342 2112.012 
2057 2055 2107.3302 2049.588 2080.2798 2281.8573 2049.8481 2138.8023 2141.1432 2120.5953 2130.4791 2134.6407 2142.7038 2024.8785 2117.9943 2114.0928 
2054 2052 2102.1282 2043.8658 2078.9793 2303.7057 2070.9162 2139.5826 2144.5245 2124.7569 2132.82 2140.3629 2145.5649 2022.5376 2117.214 2110.4514 
2053 2050 2094.5853 2058.9516 2081.0601 2329.4556 2083.9212 2137.5018 2142.7038 2116.6938 2127.8781 2132.2998 2148.6861 2007.972 2115.1332 2105.7696 
2053 2048 2089.9035 2063.3733 2088.0828 2317.491 2076.3783 2128.1382 2134.3806 2100.0474 2115.9135 2122.9362 2140.623 2003.5503 2110.1913 2102.1282 
2052 2040 2086.2621 2052.189 2084.7015 2304.7461 2066.2344 2126.8377 2130.9993 2097.9666 2111.2317 2127.0978 2130.9993 1999.1286 2102.6484 2097.9666 
2054 2036 2079.4995 2046.7269 2069.3556 2325.8142 2059.992 2129.1786 2136.4614 2100.0474 2110.7115 2123.7165 2121.3756 1985.0832 2094.3252 2091.9843 
2052 2026 2075.3379 2049.0678 2064.9339 2346.3621 2055.0501 2124.2367 2138.8023 2091.7242 2103.1686 2114.0928 2112.7923 1973.1186 2090.1636 2087.5626 
2049 2021 2080.5399 2058.9516 2077.9389 2345.5818 2055.0501 2123.9766 2135.9412 2091.9843 2104.4691 2125.5372 2119.5549 1975.9797 2095.6257 2092.2444 
2032 2015 2087.8227 2063.6334 2083.9212 2339.8596 2064.6738 2131.5195 2141.1432 2101.3479 2111.2317 2136.7215 2126.0574 1982.2221 2099.7873 2097.7065 
2045 2013 2083.401 2047.7673 2076.1182 2331.5364 2083.6611 2130.9993 2148.426 2093.0247 2102.6484 2120.3352 2116.9539 1975.4595 2094.3252 2091.4641 
2044 2012 2074.5576 2038.1436 2070.1359 2335.1778 2108.6307 2124.7569 2141.1432 2078.9793 2092.7646 2108.8908 2111.2317 1961.154 2089.6434 2084.1813 
2040 2007 2074.5576 2049.0678 2068.8354 2346.3621 2120.5953 2123.9766 2135.1609 2083.1409 2098.2267 2121.8958 2115.3933 1956.2121 2089.1232 2083.401 
2040 2003 2077.9389 2056.3506 2067.5349 2330.2359 2113.0524 2121.8958 2140.623 2086.2621 2097.9666 2125.017 2113.3125 1957.2525 2085.7419 2082.8808 
2040 1994 2072.997 2044.6461 2061.5526 2306.3067 2114.613 2114.3529 2138.022 2074.0374 2083.9212 2104.209 2102.3883 1952.8308 2078.9793 2077.4187 
2037 1991 2065.4541 2035.8027 2056.8708 2314.3698 2126.0574 2110.1913 2129.6988 2070.9162 2081.0601 2094.0651 2098.2267 1946.5884 2076.6384 2073.7773 
2039 1990 2064.4137 2039.184 2053.7496 2316.7107 2132.82 2109.6711 2132.2998 2080.2798 2092.5045 2111.7519 2099.7873 1945.0278 2078.199 2075.0778 
2040 1993 2069.6157 2042.0451 2053.2294 2295.3825 2135.421 2109.1509 2137.7619 2084.9616 2099.5272 2123.7165 2098.2267 1949.9697 2080.8 2079.4995 
2041 1996 2077.9389 2051.9289 2062.0728 2294.6022 2129.4387 2111.7519 2138.5422 2085.4818 2099.5272 2113.0524 2100.8277 1951.5303 2083.401 2083.6611 
2044 1997 2083.9212 2056.3506 2066.4945 2299.0239 2131.2594 2114.613 2138.5422 2087.0424 2097.7065 2104.4691 2105.7696 1953.8712 2087.3025 2086.2621 
2048 2001 2078.199 2044.386 2053.7496 2285.2386 2148.1659 2110.7115 2134.1205 2083.6611 2092.7646 2108.8908 2100.0474 1956.9924 2085.7419 2084.1813 
2047 2003 2069.6157 2035.0224 2043.8658 2274.5745 2155.4487 2105.7696 2130.4791 2080.2798 2089.1232 2107.0701 2089.9035 1943.4672 2077.9389 2079.4995 
2048 2011 2068.5753 2039.9643 2048.5476 2271.4533 2148.1659 2106.81 2134.1205 2083.9212 2093.805 2099.5272 2092.5045 1919.0178 2076.6384 2080.0197 
2050 2016 2074.0374 2051.1486 2055.3102 2274.0543 2134.6407 2108.3706 2136.9816 2087.3025 2098.2267 2106.2898 2099.007 1922.3991 2082.6207 2085.4818 
2048 2019 2084.9616 2047.2471 2065.4541 2265.7311 2125.5372 2107.5903 2135.9412 2085.2217 2096.9262 2113.3125 2094.0651 1942.947 2085.2217 2091.7242 
2046 2032 2087.8227 2038.4037 2065.9743 2248.3044 2133.3402 2107.3302 2133.8604 2083.1409 2092.5045 2097.1863 2087.5626 1925.7804 2080.8 2090.6838 
2042 2037 2079.2394 2041.0047 2052.9693 2242.3221 2141.6634 2105.5095 2130.4791 2082.6207 2088.0828 2085.2217 2091.204 1891.1871 2072.997 2083.9212 
2041 2045 2078.199 2047.7673 2050.6284 2242.8423 2125.017 2105.2494 2129.1786 2082.6207 2088.3429 2099.5272 2095.6257 1890.4068 2072.997 2084.1813 
2045 2049 2084.9616 2043.3456 2059.992 2238.1605 2108.8908 2106.81 2130.219 2083.9212 2091.204 2110.7115 2094.0651 1908.0936 2078.9793 2090.9439 
2049 2056 2086.7823 2043.6057 2063.6334 2242.3221 2110.7115 2106.81 2130.7392 2089.1232 2092.5045 2104.7292 2094.5853 1897.1694 2081.0601 2093.805 
2048 2060 2088.603 2052.189 2067.795 2242.5822 2112.7923 2109.1509 2128.9185 2090.4237 2093.5449 2100.3075 2101.8681 1872.72 2083.1409 2094.8454 
2046 2066 2090.1636 2040.2244 2071.4364 2214.7515 2121.3756 2113.5726 2124.4968 2083.9212 2090.1636 2097.7065 2102.9085 1874.0205 2085.2217 2091.4641 
2048 2068 2083.401 2033.7219 2066.4945 2207.4687 2135.421 2112.5322 2122.1559 2081.3202 2086.5222 2096.6661 2094.0651 1882.0836 2077.9389 2082.3606 
2049 2072 2084.4414 2059.4718 2072.2167 2244.4029 2135.9412 2109.411 2124.4968 2082.8808 2087.5626 2108.3706 2093.2848 1875.5811 2076.3783 2083.1409 
2048 2071 2089.6434 2063.3733 2080.2798 2245.7034 2140.3629 2109.1509 2121.6357 2076.1182 2081.0601 2109.9312 2097.7065 1866.4776 2084.7015 2091.7242 
2047 2071 2088.0828 2032.1613 2068.0551 2198.1051 2154.1482 2111.4918 2119.0347 2074.2975 2074.0374 2098.4868 2097.4464 1872.1998 2085.2217 2091.9843 
2045 2078 2093.5449 2034.7623 2057.1309 2193.4233 2162.9916 2117.4741 2126.8377 2088.3429 2084.9616 2111.4918 2098.2267 1884.6846 2086.002 2095.1055 
2042 2083 2100.5676 2062.3329 2059.992 2229.3171 2171.3148 2125.017 2132.82 2094.0651 2092.7646 2127.618 2101.8681 1883.9043 2093.0247 2100.8277 
2035 2081 2099.7873 2055.5703 2064.1536 2227.4964 2176.5168 2129.9589 2132.5599 2088.0828 2087.0424 2116.1736 2102.6484 1880.0028 2092.7646 2097.7065 
2032 2077 2095.1055 2035.5426 2061.2925 2207.4687 2181.4587 2131.5195 2133.3402 2087.3025 2086.2621 2107.5903 2096.9262 1888.8462 2081.8404 2087.8227 
2034 2059 2088.603 2031.9012 2050.8885 2199.4056 2205.9081 2130.9993 2137.2417 2084.1813 2085.7419 2109.1509 2084.9616 1896.6492 2074.0374 2077.6788 
2036 2050 2085.2217 2033.982 2038.4037 2199.4056 2239.2009 2133.0801 2136.9816 2074.8177 2079.2394 2103.4287 2078.7192 1893.7881 2074.2975 2071.6965 
2036 2036 2087.5626 2026.9593 2038.4037 2207.2086 2250.1251 2137.2417 2131.7796 2071.1763 2077.4187 2106.5499 2083.401 1900.2906 2076.6384 2072.4768 
2034 2035 2087.0424 2013.9543 2033.4618 2206.9485 2251.9458 2137.7619 2133.6003 2072.2167 2076.6384 2110.9716 2077.4187 1918.4976 2073.2571 2074.2975 
2032 2036 2088.8631 2018.6361 2016.2952 2200.9662 2268.5922 2142.9639 2144.5245 2073.7773 2075.0778 2099.5272 2072.4768 1936.1844 2071.1763 2078.4591 
2032 2037 2102.6484 2030.0805 2017.5957 2212.4106 2292.2613 2154.6684 2150.2467 2079.2394 2079.4995 2099.7873 2087.8227 1961.4141 2079.2394 2088.3429 
2033 2034 2108.8908 2024.0982 2032.6815 2226.9762 2299.0239 2154.6684 2143.7442 2082.3606 2084.1813 2110.9716 2096.6661 1987.6842 2083.6611 2090.1636 
2037 2034 2102.3883 2016.2952 2030.6007 2221.5141 2285.2386 2146.8654 2136.9816 2081.0601 2084.7015 2102.3883 2091.204 2003.0301 2081.8404 2082.8808 
2042 2034 2096.6661 2015.775 2013.4341 2219.6934 2285.2386 2145.0447 2134.9008 2078.9793 2083.9212 2095.6257 2087.5626 2003.0301 2080.2798 2077.9389 
2041 2026 2093.805 2006.9316 2001.4695 2229.5772 2296.9431 2144.2644 2132.5599 2076.6384 2082.6207 2099.5272 2084.7015 1997.0478 2075.598 2073.7773 
2037 2018 2093.2848 2000.169 1996.7877 2223.5949 2289.1401 2137.2417 2130.7392 2076.8985 2080.5399 2091.7242 2078.7192 2003.8104 2071.9566 2067.795 
2033 1995 2090.9439 2003.5503 1996.0074 2211.1101 2286.0189 2131.5195 2129.9589 2077.9389 2077.9389 2088.8631 2077.4187 2013.174 2070.9162 2063.8935 
2031 1985 2087.8227 2002.5099 2001.2094 2220.2136 2301.885 2130.9993 2130.219 2077.1586 2075.598 2093.805 2079.2394 2011.8735 2068.5753 2060.7723 
2027 1976 2095.6257 1999.3887 2008.2321 2224.8954 2304.2259 2130.9993 2130.7392 2076.3783 2075.8581 2091.9843 2079.2394 2019.1563 2068.0551 2066.2344 
2026 1978 2107.8504 2000.4291 2004.8508 2204.3475 2301.3648 2130.4791 2131.2594 2075.598 2074.8177 2093.2848 2077.4187 2027.7396 2069.0955 2075.598 
2030 1998 2111.2317 2005.371 2007.1917 2213.7111 2312.0289 2128.6584 2131.7796 2074.5576 2071.9566 2093.2848 2075.3379 2021.2371 2067.5349 2076.3783 
2034 2009 2107.0701 2010.3129 2018.1159 2250.1251 2309.1678 2126.0574 2132.5599 2075.3379 2072.4768 2082.8808 2077.4187 2017.0755 2068.3152 2069.8758 
2030 2019 2108.3706 2007.1917 2012.9139 2242.8423 2293.3017 2123.7165 2130.7392 2077.6788 2074.8177 2087.8227 2081.3202 2025.6588 2072.4768 2068.0551 
2026 2017 2109.9312 2005.371 2001.2094 2217.8727 2282.3775 2117.4741 2124.7569 2078.7192 2077.1586 2094.5853 2078.199 2020.4568 2070.396 2068.8354 
2029 2022 2100.8277 2006.9316 1998.3483 2226.1959 2261.0493 2106.2898 2118.2544 2076.8985 2075.0778 2075.0778 2069.3556 2001.4695 2063.1132 2060.5122 
2027 2028 2092.7646 2007.1917 1993.4064 2239.7211 2232.6984 2097.4464 2112.7923 2074.2975 2069.8758 2070.6561 2067.2748 1997.0478 2062.0728 2053.4895 
2023 2036 2096.1459 2007.1917 1986.1236 2236.86 2231.658 2092.7646 2108.6307 2075.598 2072.7369 2090.4237 2074.2975 2001.2094 2067.0147 2059.4718 
2034 2056 2097.9666 2000.9493 1983.2625 2218.1328 2261.3094 2087.3025 2105.5095 2077.9389 2079.7596 2091.9843 2078.199 1998.8685 2066.4945 2065.9743 
2043 2064 2094.3252 1996.0074 1983.0024 2200.7061 2284.4583 2083.6611 2104.209 2075.3379 2075.3379 2079.7596 2078.9793 2006.1513 2064.6738 2065.9743 
2055 2063 2101.0878 2010.8331 1993.1463 2221.254 2299.284 2086.7823 2104.4691 2070.9162 2065.194 2077.4187 2086.002 2022.7977 2071.1763 2070.396 
2061 2057 2113.5726 2028.5199 2002.2498 2243.8827 2343.7611 2088.603 2106.0297 2071.1763 2067.0147 2079.7596 2092.2444 2032.9416 2078.4591 2076.3783 
2069 2040 2111.7519 2019.9366 1988.7246 2211.8904 2415.2886 2086.5222 2112.012 2077.4187 2074.2975 2083.9212 2086.2621 2034.5022 2075.0778 2074.8177 
2072 2034 2103.6888 2006.6715 1979.8812 2181.7188 2488.6368 2086.2621 2114.8731 2085.7419 2078.7192 2093.805 2081.0601 2031.381 2070.6561 2071.9566 
2078 2032 2106.2898 2023.0578 1999.6488 2216.8323 2576.5506 2090.4237 2111.4918 2092.7646 2084.7015 2100.0474 2094.5853 2038.9239 2078.4591 2076.3783 
2076 2027 2115.6534 2037.6234 2013.174 2232.9585 2695.9365 2094.8454 2110.7115 2099.5272 2095.1055 2099.007 2111.4918 2056.3506 2090.4237 2084.7015 
2065 2034 2116.6938 2029.0401 1999.6488 2199.6657 2826.7668 2095.8858 2114.3529 2106.81 2105.5095 2097.1863 2114.3529 2058.6915 2093.0247 2089.9035 
2066 2040 2113.5726 2027.9997 1995.7473 2200.9662 2950.0542 2095.8858 2114.0928 2107.5903 2106.5499 2099.5272 2115.9135 2048.0274 2090.1636 2089.9035 
2067 2042 2120.5953 2034.5022 2020.1967 2217.0924 3062.4174 2098.4868 2114.3529 2103.4287 2103.4287 2096.9262 2123.7165 2073.7773 2095.1055 2095.1055 
2064 2036 2128.3983 2033.4618 2032.4214 2200.9662 3158.3943 2101.608 2120.5953 2108.8908 2110.7115 2087.5626 2126.5776 2118.7746 2100.3075 2100.3075 
2063 2026 2124.7569 2030.8608 2011.0932 2190.3021 3237.4647 2102.1282 2120.8554 2118.2544 2120.8554 2079.4995 2128.6584 2132.5599 2096.406 2095.6257 
2056 1999 2125.2771 2039.4441 2009.5326 2209.0293 3279.6009 2105.5095 2117.7342 2120.3352 2120.3352 2078.9793 2142.1836 2140.8831 2096.9262 2094.0651 
2054 1990 2132.5599 2052.4491 2035.8027 2219.9535 3290.7852 2109.6711 2121.6357 2125.017 2122.9362 2092.7646 2158.83 2156.229 2106.5499 2097.9666 
2066 1970 2125.7973 2045.4264 2028.2598 2199.9258 3313.4139 2107.5903 2128.6584 2133.6003 2131.7796 2099.2671 2168.1936 2161.431 2108.1105 2089.6434 
2075 1960 2117.9943 2027.9997 2007.4518 2186.4006 3338.6436 2108.8908 2126.8377 2142.4437 2139.3225 2096.1459 2183.5395 2185.3602 2105.5095 2083.9212 
2077 1952 2123.4564 2039.9643 2017.3356 2211.6303 3324.5982 2114.613 2121.3756 2155.1886 2151.5472 2109.411 2205.9081 2220.9939 2112.012 2093.2848 
2072 1957 2126.8377 2059.2117 2024.8785 2226.1959 3295.2069 2113.0524 2120.3352 2163.7719 2160.9108 2128.1382 2221.5141 2217.8727 2115.6534 2097.1863 
2062 1969 2125.5372 2042.8254 2013.6942 2198.6253 3274.659 2104.7292 2115.6534 2164.032 2161.9512 2124.7569 2239.7211 2204.0874 2115.3933 2094.3252 
2052 1973 2130.4791 2032.6815 2011.6134 2200.7061 3223.6794 2099.007 2108.6307 2168.7138 2166.8931 2121.1155 2267.0316 2217.6126 2121.1155 2097.4464 
2043 1976 2134.1205 2045.9466 2013.174 2230.6176 3152.1519 2098.7469 2105.7696 2177.5572 2174.1759 2138.5422 2277.9558 2226.7161 2125.017 2098.7469 
2043 1977 2129.1786 2040.2244 2000.6892 2220.2136 3100.392 2095.8858 2105.5095 2179.1178 2175.2163 2144.5245 2262.0897 2225.6757 2121.8958 2094.5853 
2040 1977 2122.9362 2028.78 1981.1817 2203.8273 3045.5109 2089.9035 2104.7292 2176.7769 2174.6961 2130.219 2242.3221 2217.6126 2117.4741 2093.2848 
2033 1966 2123.4564 2035.2825 1968.1767 2215.5318 2965.9203 2089.3833 2106.81 2174.1759 2173.1355 2125.7973 2238.6807 2198.1051 2114.3529 2094.3252 
2034 1960 2126.3175 2041.2648 1959.8535 2217.8727 2879.307 2090.9439 2108.6307 2169.234 2169.234 2132.0397 2239.7211 2191.3425 2114.3529 2096.9262 
2046 1945 2127.8781 2037.1032 1946.5884 2210.0697 2793.9942 2089.1232 2106.2898 2167.4133 2172.8754 2122.9362 2230.0974 2203.5672 2118.5145 2100.5676 
2046 1940 2132.82 2042.3052 1932.0228 2222.2944 2710.7622 2093.5449 2110.4514 2169.4941 2178.3375 2110.7115 2220.4737 2208.7692 2121.3756 2104.4691 
2040 1937 2139.5826 2059.992 1919.538 2239.9812 2629.3509 2098.7469 2114.8731 2167.1532 2173.3956 2123.4564 2218.653 2194.9839 2120.3352 2108.1105 
2039 1937 2146.8654 2076.3783 1911.735 2248.5645 2544.2982 2095.1055 2105.7696 2162.7315 2168.7138 2138.2821 2217.8727 2187.441 2121.1155 2111.7519 
2044 1940 2153.8881 2088.603 1907.0532 2254.8069 2469.3894 2090.4237 2095.6257 2160.6507 2168.9739 2128.1382 2212.4106 2192.9031 2121.8958 2114.0928 
2046 1940 2150.5068 2092.5045 1905.4926 2260.269 2421.2709 2090.6838 2098.7469 2160.6507 2167.4133 2117.7342 2203.5672 2184.84 2116.4337 2111.7519 
2052 1937 2138.022 2085.2217 1899.7704 2254.2867 2395.0008 2091.204 2102.9085 2153.8881 2159.0901 2125.5372 2191.8627 2158.0497 2106.0297 2105.2494 
2055 1937 2135.1609 2087.3025 1890.4068 2252.466 2367.6903 2090.6838 2099.7873 2147.9058 2153.628 2121.3756 2181.9789 2142.1836 2103.4287 2103.9489 
2060 1939 2143.7442 2113.5726 1887.0255 2270.4129 2328.4152 2091.7242 2098.4868 2153.628 2157.7896 2114.613 2179.8981 2135.6811 2110.1913 2107.5903 
2063 1940 2146.6053 2128.6584 1882.8639 2273.7942 2291.481 2093.0247 2100.0474 2150.5068 2155.1886 2127.0978 2173.3956 2114.8731 2108.3706 2104.9893 
2065 1944 2139.0624 2117.7342 1869.0786 2255.5872 2271.4533 2091.7242 2101.8681 2131.5195 2138.022 2127.0978 2157.7896 2089.1232 2095.6257 2095.3656 
2072 1961 2133.8604 2109.1509 1862.316 2246.4837 2258.1882 2089.9035 2098.4868 2120.0751 2127.3579 2116.1736 2149.9866 2062.0728 2092.2444 2094.5853 
2075 1965 2138.2821 2109.6711 1872.4599 2246.7438 2238.4206 2090.1636 2088.603 2120.3352 2132.82 2132.0397 2155.7088 2028.2598 2101.608 2104.9893 
2077 1969 2144.2644 2107.8504 1876.3614 2235.5595 2214.7515 2089.9035 2085.4818 2115.3933 2132.5599 2142.7038 2157.7896 1997.0478 2102.6484 2108.6307 
2078 1968 2144.7846 2106.5499 1872.4599 2231.658 2192.643 2089.3833 2090.4237 2112.012 2127.3579 2126.8377 2150.5068 1977.8004 2097.7065 2103.6888 
2080 1974 2145.3048 2108.3706 1871.6796 2241.5418 2173.1355 2090.4237 2092.2444 2115.1332 2130.4791 2130.7392 2144.7846 1968.1767 2096.6661 2103.4287 
2083 1980 2146.8654 2109.1509 1876.8816 2236.5999 2153.628 2091.4641 2092.7646 2112.012 2129.9589 2148.1659 2140.623 1957.5126 2093.5449 2106.5499 
2086 1993 2142.4437 2103.1686 1882.8639 2224.1151 2133.3402 2090.4237 2094.3252 2102.6484 2121.8958 2140.3629 2134.1205 1939.3056 2088.603 2101.3479 
2082 1991 2142.4437 2096.9262 1883.124 2223.3348 2116.9539 2088.603 2094.3252 2106.2898 2127.0978 2129.1786 2133.3402 1928.6415 2093.2848 2102.1282 
2089 1997 2147.6457 2095.8858 1878.4422 2219.1732 2120.8554 2088.0828 2101.8681 2123.7165 2140.3629 2131.7796 2135.1609 1926.5607 2098.2267 2112.012 
2090 2000 2145.3048 2091.7242 1882.6038 2206.1682 2139.0624 2089.9035 2108.1105 2117.7342 2133.6003 2125.5372 2132.0397 1917.7173 2093.805 2115.6534 
2095 2000 2142.9639 2092.2444 1901.8512 2210.0697 2121.3756 2090.4237 2098.7469 2091.4641 2117.7342 2117.4741 2130.7392 1907.5734 2092.7646 2114.0928 
2096 2002 2150.2467 2099.2671 1918.4976 2218.3929 2069.3556 2090.4237 2094.3252 2089.9035 2120.3352 2130.9993 2135.6811 1905.2325 2100.5676 2120.0751 
2093 1995 2152.8477 2089.6434 1926.5607 2192.1228 2038.4037 2091.9843 2103.1686 2106.0297 2129.1786 2144.2644 2133.0801 1898.9901 2104.4691 2122.1559 
2089 1985 2148.9462 2080.2798 1937.2248 2170.7946 2008.2321 2093.5449 2109.1509 2110.1913 2129.4387 2139.5826 2122.9362 1895.8689 2101.3479 2116.9539 
2093 1989 2152.3275 2090.6838 1958.2929 2194.2036 1952.0505 2095.3656 2109.9312 2112.012 2128.9185 2137.7619 2125.017 1898.73 2102.9085 2119.0347 
2095 1991 2153.628 2090.6838 1978.0605 2213.1909 1930.9824 2099.007 2112.5322 2116.1736 2129.1786 2142.1836 2132.82 1894.0482 2107.8504 2124.4968 
2096 1993 2150.7669 2077.1586 1994.1867 2198.3652 1947.6288 2103.6888 2112.7923 2116.1736 2130.9993 2144.2644 2131.7796 1888.8462 2110.4514 2123.9766 
2095 1995 2153.3679 2077.1586 2013.174 2186.6607 1937.745 2104.4691 2114.0928 2122.416 2137.7619 2145.5649 2129.4387 1892.7477 2111.4918 2124.2367 
2094 1995 2156.7492 2081.5803 2024.3583 2187.441 1914.0759 2102.3883 2115.1332 2127.0978 2139.3225 2142.4437 2130.7392 1899.5103 2110.1913 2127.0978 
2093 1995 2159.3502 2086.002 2031.381 2184.3198 1908.0936 2103.6888 2112.012 2123.4564 2135.6811 2139.3225 2135.421 1904.1921 2112.5322 2129.9589 
2092 1994 2163.2517 2095.8858 2044.386 2188.7415 1900.2906 2107.3302 2114.613 2125.5372 2139.0624 2146.3452 2140.623 1905.7527 2120.0751 2133.3402 
2092 1996 2161.6911 2091.7242 2052.9693 2190.042 1897.4295 2107.0701 2118.5145 2132.2998 2144.0043 2147.3856 2140.623 1906.2729 2121.3756 2132.5599 
2090 1997 2155.7088 2077.9389 2052.7092 2176.2567 1902.8916 2106.0297 2117.214 2132.5599 2141.4033 2142.4437 2135.6811 1906.533 2116.4337 2129.9589 
2080 2002 2156.229 2073.2571 2055.5703 2157.5295 1872.4599 2104.209 2123.7165 2128.9185 2133.0801 2142.4437 2122.1559 1905.2325 2111.4918 2130.4791 
2076 2002 2156.7492 2080.2798 2063.1132 2161.431 1872.72 2102.1282 2111.7519 2128.1382 2132.0397 2142.9639 2125.2771 1909.3941 2113.8327 2130.4791 
2069 2004 2158.5699 2091.204 2076.1182 2171.0547 1870.8993 2104.209 2108.8908 2127.8781 2137.7619 2148.426 2133.0801 1911.735 2117.214 2133.6003 
2065 2004 2162.4714 2093.5449 2085.4818 2169.4941 1868.0382 2106.2898 2116.1736 2129.4387 2140.1028 2151.2871 2133.0801 1916.1567 2117.7342 2135.6811 
2058 2006 2167.1532 2084.7015 2089.3833 2159.8704 1875.8412 2109.6711 2117.7342 2133.8604 2139.3225 2154.4083 2133.6003 1926.5607 2120.8554 2139.0624 
2055 2004 2170.7946 2083.6611 2094.3252 2164.5522 1880.523 2114.8731 2119.2948 2140.3629 2143.7442 2160.9108 2142.4437 1935.9243 2127.3579 2145.0447 
2051 2000 2170.5345 2096.406 2103.6888 2172.3552 1875.8412 2116.1736 2124.7569 2138.022 2146.0851 2161.9512 2144.5245 1941.9066 2129.1786 2148.426 
2050 1996 2170.2744 2101.8681 2110.9716 2164.8123 1863.3564 2114.0928 2124.4968 2138.8023 2146.6053 2155.1886 2139.3225 1947.1086 2129.1786 2147.9058 
2048 1983 2170.0143 2095.1055 2109.1509 2157.5295 1849.5711 2114.613 2126.5776 2153.8881 2153.1078 2148.6861 2136.9816 1948.9293 2129.4387 2146.6053 
2048 1980 2165.3325 2093.0247 2109.411 2155.9689 1850.8716 2116.1736 2135.6811 2153.3679 2150.2467 2146.8654 2132.0397 1946.3283 2126.0574 2142.1836 
2049 1975 2163.5118 2091.9843 2120.5953 2145.825 1862.316 2117.7342 2134.1205 2127.3579 2135.421 2146.0851 2125.7973 1951.7904 2124.2367 2140.623 
2048 1974 2166.3729 2088.8631 2123.1963 2143.224 1862.8362 2119.5549 2119.2948 2116.6938 2132.0397 2143.7442 2133.0801 1963.755 2129.6988 2146.3452 
2046 1972 2170.0143 2103.6888 2119.5549 2163.2517 1850.6115 2120.5953 2114.613 2132.0397 2142.7038 2148.6861 2145.825 1968.957 2137.2417 2151.5472 
2044 1974 2172.3552 2116.4337 2127.8781 2168.4537 1848.7908 2122.6761 2122.6761 2141.4033 2148.426 2156.7492 2142.7038 1970.7777 2138.2821 2151.8073 
2043 1974 2172.0951 2106.2898 2136.2013 2154.1482 1864.3968 2123.4564 2126.3175 2138.022 2146.6053 2155.1886 2135.1609 1976.2398 2135.9412 2152.0674 
2041 1978 2171.835 2099.2671 2134.9008 2153.628 1878.1821 2124.4968 2126.8377 2136.9816 2144.7846 2152.0674 2138.5422 1981.7019 2138.5422 2154.9285 
2042 1980 2176.5168 2106.2898 2139.8427 2155.9689 1873.2402 2125.5372 2128.1382 2140.623 2145.5649 2154.1482 2142.7038 1984.8231 2142.9639 2157.7896 
2040 1982 2180.4183 2113.5726 2145.5649 2149.4664 1854.513 2124.7569 2128.6584 2141.9235 2147.9058 2149.2063 2142.1836 1990.8054 2142.4437 2159.3502 
2039 1981 2172.3552 2114.613 2138.8023 2151.027 1851.1317 2123.4564 2128.1382 2139.3225 2147.1255 2145.5649 2140.1028 1993.1463 2139.0624 2155.7088 
2037 1982 2159.6103 2107.3302 2132.0397 2152.0674 1868.2983 2123.4564 2124.2367 2136.4614 2142.4437 2145.825 2132.2998 1992.8862 2135.421 2147.1255 
2037 1982 2155.7088 2093.805 2138.8023 2132.82 1870.119 2121.1155 2122.416 2136.2013 2141.4033 2141.9235 2124.2367 1996.2675 2132.82 2141.9235 
2036 1982 2164.2921 2096.9262 2148.9462 2125.2771 1857.3741 2122.416 2128.6584 2139.0624 2146.6053 2142.7038 2128.9185 1999.3887 2136.4614 2147.9058 
2035 1983 2171.3148 2114.0928 2152.5876 2144.7846 1861.7958 2127.618 2132.82 2140.8831 2148.1659 2150.2467 2137.2417 2000.169 2141.1432 2155.1886 
2035 1983 2168.4537 2119.0347 2153.3679 2153.1078 1865.4372 2127.3579 2130.9993 2142.4437 2146.3452 2146.8654 2136.2013 2006.1513 2138.5422 2153.3679 
2036 1983 2162.2113 2109.1509 2153.3679 2142.7038 1861.2756 2122.6761 2130.4791 2144.5245 2147.3856 2138.8023 2130.219 2011.8735 2134.9008 2147.3856 
2035 1982 2155.9689 2097.9666 2152.3275 2128.3983 1869.0786 2122.416 2130.219 2141.4033 2143.4841 2140.8831 2125.5372 2015.2548 2134.3806 2146.3452 
2035 1977 2154.1482 2098.7469 2153.8881 2122.9362 1869.0786 2124.4968 2127.618 2136.4614 2136.2013 2142.7038 2127.3579 2025.9189 2135.9412 2149.4664 
2034 1974 2156.4891 2106.0297 2154.9285 2129.6988 1856.5938 2123.9766 2130.7392 2143.4841 2142.9639 2148.1659 2130.7392 2033.2017 2137.2417 2150.2467 
2038 1983 2152.3275 2100.0474 2150.5068 2126.5776 1855.0332 2120.5953 2137.7619 2151.027 2148.1659 2147.3856 2122.416 2033.7219 2132.0397 2145.0447 
2035 2039 2150.2467 2094.8454 2158.83 2117.214 1857.6342 2123.1963 2136.9816 2146.3452 2140.3629 2138.5422 2120.3352 2049.0678 2132.5599 2147.9058 
2064 2155 2159.6103 2106.5499 2170.7946 2121.8958 1859.715 2131.7796 2129.1786 2146.8654 2140.8831 2146.8654 2135.421 2070.9162 2144.2644 2158.5699 
2065 2087 2169.234 2118.5145 2147.1255 2129.6988 1861.2756 2130.4791 2128.1382 2155.1886 2151.027 2155.1886 2141.4033 2082.1005 2146.0851 2156.4891 
2021 1980 2160.9108 2115.6534 2140.3629 2120.0751 1846.4499 2122.6761 2132.5599 2153.8881 2149.7265 2134.9008 2128.3983 2080.0197 2134.9008 2139.5826 
2069 1972 2144.5245 2107.3302 2166.8931 2113.5726 1853.9928 2126.5776 2131.5195 2144.2644 2139.8427 2114.3529 2117.7342 2076.1182 2129.9589 2143.4841 
2035 1940 2163.2517 2117.7342 2125.2771 2147.6457 1948.6692 2138.8023 2132.0397 2144.2644 2139.3225 2135.421 2122.6761 2077.1586 2133.0801 2146.8654 
2009 1931 2217.8727 2156.4891 2234.7792 2209.2894 2130.9993 2142.7038 2141.4033 2151.8073 2143.7442 2141.6634 2121.1155 2082.6207 2129.4387 2131.5195 
2030 1953 2265.471 2194.9839 2723.7672 2261.5695 2369.2509 2132.0397 2151.5472 2154.4083 2141.1432 2141.4033 2110.1913 2128.3983 2144.5245 2243.1024 
2034 1950 2292.2613 2209.8096 3208.3335 2292.5214 2559.384 2128.9185 2148.426 2155.1886 2137.5018 2366.1297 2152.3275 2274.0543 2209.8096 2503.2024 
2027 1943 2319.8319 2212.6707 3362.3127 2299.8042 2596.0581 2151.2871 2135.9412 2159.0901 2141.6634 2752.3782 2247.0039 2488.8969 2281.3371 2645.9973 
2020 1949 2346.6222 2213.1909 3415.113 2286.7992 2599.1793 2165.8527 2132.0397 2164.5522 2149.4664 2872.8045 2297.4633 2638.1943 2292.0012 2586.1743 
2024 1960 2363.0085 2213.1909 3496.0041 2278.2159 2689.434 2149.9866 2134.6407 2166.1128 2149.4664 2701.9188 2280.0366 2677.4694 2265.471 2535.1947 
2018 1960 2375.2332 2210.3298 3497.0445 2275.0947 2720.1258 2139.0624 2133.0801 2159.0901 2140.8831 2586.4344 2258.9685 2690.4744 2254.0266 2534.6745 
2016 1954 2382.2559 2194.7238 3471.2946 2252.466 2608.5429 2147.1255 2129.9589 2149.7265 2136.2013 2555.2224 2249.3448 2715.9642 2248.3044 2476.152 
2016 1946 2391.3594 2186.4006 3464.7921 2235.2994 2509.7049 2150.2467 2131.5195 2149.7265 2142.1836 2471.9904 2238.9408 2723.7672 2235.0393 2409.5664 
2017 1938 2407.7457 2196.8046 3446.0649 2245.9635 2486.8161 2147.3856 2135.6811 2155.7088 2148.1659 2394.4806 2234.7792 2712.0627 2228.2767 2394.7407 
2015 1935 2419.7103 2198.1051 3429.9387 2249.0847 2454.5637 2147.3856 2139.8427 2157.2694 2147.9058 2354.4252 2230.0974 2701.3986 2230.6176 2389.7988 
2016 1934 2420.2305 2183.5395 3407.0499 2236.3398 2403.324 2146.6053 2136.9816 2150.2467 2144.5245 2320.092 2217.8727 2688.9138 2225.1555 2381.2155 
2018 1944 2416.8492 2177.5572 3381.0399 2226.7161 2359.107 2145.3048 2129.9589 2141.1432 2139.8427 2295.3825 2203.5672 2672.5275 2211.3702 2388.2382 
2020 1949 2418.6699 2179.638 3362.5728 2217.3525 2314.1097 2146.8654 2133.8604 2142.4437 2142.7038 2275.3548 2197.3248 2668.3659 2209.0293 2399.9427 
2022 1950 2410.8669 2177.2971 3332.4012 2208.249 2257.1478 2148.6861 2141.1432 2148.426 2146.3452 2259.4887 2196.8046 2667.5856 2212.9308 2394.2205 
2028 1944 2391.3594 2180.4183 3287.664 2206.6884 2196.5445 2148.1659 2137.7619 2146.6053 2141.1432 2243.1024 2191.0824 2651.7195 2209.0293 2378.3544 
2028 1939 2373.9327 2186.6607 3246.5682 2208.249 2153.3679 2147.3856 2130.9993 2146.8654 2143.7442 2233.7388 2187.441 2627.2701 2204.6076 2366.91 
2028 1936 2358.0666 2180.9385 3209.8941 2201.2263 2114.0928 2147.9058 2132.0397 2149.2063 2148.9462 2227.4964 2190.042 2606.202 2204.8677 2355.9858 
2031 1935 2342.4606 2174.436 3170.619 2192.1228 2069.6157 2146.8654 2132.5599 2140.8831 2138.8023 2210.0697 2190.3021 2592.1566 2202.7869 2341.4202 
2037 1930 2331.7965 2177.5572 3140.9676 2186.4006 2029.0401 2145.0447 2129.9589 2139.3225 2135.421 2205.9081 2188.2213 2585.1339 2201.4864 2333.3571 
2038 1932 2323.7334 2175.4764 3115.2177 2174.9562 2008.7523 2144.0043 2133.8604 2153.3679 2152.5876 2214.4914 2185.6203 2581.2324 2203.3071 2331.0162 
2038 1936 2313.3294 2168.4537 3082.4451 2164.8123 2003.8104 2142.7038 2138.2821 2158.3098 2157.2694 2206.4283 2180.6784 2573.4294 2201.7465 2321.3925 
2040 1937 2305.0062 2172.8754 3062.9376 2167.6734 1994.967 2142.4437 2134.1205 2149.2063 2144.7846 2200.446 2181.7188 2565.6264 2200.7061 2308.3875 
2039 1935 2292.0012 2172.0951 3047.5917 2168.4537 1984.3029 2139.0624 2129.1786 2144.0043 2140.623 2202.7869 2180.1582 2555.4825 2195.5041 2295.3825 
2038 1932 2274.3144 2160.9108 3015.3393 2154.6684 1977.8004 2136.2013 2131.7796 2145.825 2144.2644 2194.7238 2166.3729 2540.6568 2187.7011 2281.3371 
2035 1925 2268.5922 2161.9512 2989.0692 2146.8654 1967.3964 2140.623 2134.1205 2145.3048 2141.6634 2196.5445 2162.9916 2532.8538 2190.8223 2271.9735 
2033 1923 2267.0316 2169.4941 2972.4228 2152.0674 1956.9924 2142.9639 2130.4791 2141.6634 2138.8023 2205.9081 2173.1355 2528.6922 2197.3248 2268.8523 
2032 1921 2258.4483 2162.9916 2947.4532 2146.6053 1956.4722 2137.5018 2128.6584 2142.4437 2145.3048 2198.3652 2171.0547 2519.8488 2194.4637 2264.4306 
2031 1921 2251.1655 2150.2467 2920.6629 2128.9185 1956.9924 2135.9412 2129.4387 2145.5649 2147.1255 2187.9612 2157.7896 2520.6291 2188.2213 2259.4887 
2031 1921 2247.0039 2149.2063 2898.5544 2123.7165 1952.3106 2138.5422 2130.4791 2144.2644 2141.1432 2187.1809 2152.3275 2522.4498 2185.6203 2255.5872 
2030 1922 2242.8423 2160.3906 2880.6075 2137.5018 1944.2475 2138.5422 2132.0397 2145.5649 2143.7442 2191.6026 2156.229 2506.3236 2185.6203 2252.2059 
2029 1921 2241.8019 2168.7138 2868.6429 2142.9639 1936.4445 2135.9412 2132.0397 2149.9866 2149.4664 2195.5041 2159.8704 2489.157 2186.6607 2247.264 
2027 1915 2233.2186 2156.4891 2851.7364 2124.7569 1943.9874 2132.5599 2129.9589 2149.9866 2145.0447 2189.0016 2151.5472 2480.8338 2181.4587 2235.5595 
2027 1910 2213.1909 2138.8023 2824.1658 2107.8504 1945.548 2129.9589 2131.2594 2147.3856 2141.9235 2173.1355 2137.5018 2461.5864 2171.0547 2217.0924 
2025 1906 2206.4283 2146.3452 2804.1381 2113.8327 1928.9016 2130.7392 2131.5195 2144.5245 2144.0043 2170.2744 2140.1028 2443.3794 2171.5749 2207.7288 
2025 1904 2209.8096 2157.0093 2790.3528 2123.7165 1934.6238 2131.2594 2123.9766 2138.8023 2140.623 2177.5572 2148.6861 2443.1193 2175.4764 2207.9889 
2025 1905 2207.4687 2151.2871 2779.6887 2121.3756 1952.3106 2132.5599 2119.815 2136.4614 2137.5018 2178.8577 2148.6861 2445.2001 2173.6557 2208.5091 
2026 1903 2212.4106 2160.9108 2779.9488 2125.2771 1938.5253 2140.8831 2126.5776 2143.224 2143.4841 2180.1582 2154.1482 2448.5814 2179.638 2214.4914 
2029 1900 2213.1909 2171.5749 2766.6837 2126.0574 1924.2198 2144.0043 2132.0397 2151.5472 2152.5876 2172.0951 2154.9285 2445.2001 2184.84 2214.4914 
2030 1899 2194.2036 2151.027 2733.9111 2106.2898 1937.745 2135.6811 2130.7392 2149.2063 2151.5472 2164.8123 2141.4033 2424.132 2174.6961 2200.446 
2032 1898 2180.6784 2139.8427 2716.7445 2095.3656 1943.2071 2133.8604 2129.9589 2137.5018 2139.0624 2171.3148 2136.7215 2412.6876 2165.8527 2192.1228 
2039 1904 2182.4991 2159.8704 2717.5248 2109.1509 1927.6011 2139.0624 2131.2594 2135.6811 2135.6811 2170.7946 2141.6634 2416.329 2169.7542 2195.7642 
2046 1910 2181.4587 2165.5926 2705.8203 2113.3125 1926.0405 2138.8023 2134.9008 2153.628 2152.5876 2161.431 2142.9639 2405.925 2173.3956 2195.5041 
2033 1895 2174.436 2149.7265 2683.9719 2100.0474 1936.4445 2137.2417 2141.1432 2162.4714 2157.7896 2166.8931 2143.224 2386.1574 2170.7946 2188.2213 
2036 1894 2173.1355 2149.7265 2677.2093 2099.5272 1929.942 2139.0624 2142.1836 2146.6053 2140.3629 2174.9562 2142.4437 2386.1574 2168.9739 2184.84 
2037 1901 2173.9158 2160.3906 2674.0881 2105.7696 1919.538 2138.5422 2135.1609 2135.9412 2133.0801 2163.7719 2139.3225 2396.0412 2170.0143 2185.8804 
2034 1906 2172.0951 2158.0497 2661.3432 2103.1686 1933.3233 2138.5422 2130.219 2142.9639 2141.9235 2159.0901 2140.623 2386.9377 2169.234 2185.6203 
2038 1925 2170.5345 2155.1886 2650.6791 2099.2671 1947.3687 2143.224 2131.2594 2149.2063 2147.6457 2170.7946 2146.6053 2408.7861 2170.0143 2185.8804 
2038 1928 2170.2744 2162.9916 2645.9973 2097.9666 1938.7854 2145.0447 2134.1205 2146.8654 2146.3452 2179.8981 2148.1659 2544.5583 2175.4764 2188.2213 
2035 1947 2164.2921 2167.6734 2633.7726 2101.3479 1930.4622 2142.7038 2134.6407 2146.6053 2147.3856 2182.239 2144.2644 2718.045 2175.4764 2184.84 
2039 1960 2149.9866 2161.6911 2612.4444 2103.4287 1928.6415 2138.5422 2132.5599 2147.6457 2147.9058 2177.5572 2137.2417 2779.6887 2164.2921 2172.0951 
2042 1978 2140.623 2153.8881 2610.8838 2096.6661 1930.2021 2136.2013 2130.4791 2144.7846 2144.0043 2168.1936 2135.9412 2757.06 2158.83 2163.7719 
2040 1985 2142.9639 2155.1886 2627.7903 2091.9843 1929.942 2138.8023 2133.3402 2145.3048 2145.825 2163.5118 2141.4033 2751.0777 2164.8123 2168.7138 
2040 1992 2143.7442 2159.6103 2632.4721 2095.8858 1937.4849 2140.623 2136.2013 2147.1255 2149.4664 2172.0951 2142.4437 2741.9742 2164.8123 2172.6153 
2040 2006 2139.0624 2157.0093 2632.4721 2094.8454 1952.5707 2139.3225 2134.9008 2146.8654 2149.2063 2179.638 2138.8023 2698.7976 2159.6103 2169.4941 
2040 2011 2137.5018 2154.6684 2638.7145 2090.4237 1943.9874 2140.3629 2138.2821 2150.2467 2150.2467 2162.7315 2136.7215 2649.3786 2159.3502 2165.8527 
2041 2016 2144.0043 2160.6507 2627.7903 2096.1459 1932.543 2145.0447 2140.1028 2154.1482 2153.1078 2145.3048 2141.9235 2609.3232 2162.9916 2166.8931 
2044 2016 2149.4664 2166.1128 2592.9369 2104.7292 1948.9293 2148.1659 2130.4791 2149.9866 2151.5472 2155.9689 2148.9462 2583.3132 2166.1128 2169.4941 
2052 2032 2144.2644 2163.2517 2550.0204 2101.0878 1953.8712 2146.8654 2131.5195 2151.2871 2153.1078 2160.1305 2145.0447 2562.7653 2162.7315 2166.3729 
2053 2047 2139.8427 2161.431 2499.8211 2094.3252 1936.7046 2146.8654 2140.8831 2159.0901 2155.4487 2141.6634 2138.2821 2543.2578 2159.8704 2162.4714 
2051 2052 2145.0447 2167.4133 2444.1597 2103.4287 1948.149 2151.5472 2127.8781 2146.6053 2146.8654 2142.4437 2143.4841 2538.0558 2164.2921 2164.2921 
2056 2050 2148.9462 2177.037 2383.0362 2120.5953 1965.8358 2153.1078 2112.2721 2128.9185 2139.0624 2160.1305 2151.2871 2537.2755 2166.633 2165.5926 
2056 2052 2141.6634 2180.1582 2307.087 2119.815 1951.2702 2148.1659 2119.5549 2132.5599 2141.4033 2154.4083 2146.6053 2523.2301 2159.6103 2160.1305 
2044 2045 2131.7796 2169.7542 2277.9558 2108.1105 1947.1086 2144.5245 2125.017 2137.5018 2139.3225 2133.8604 2138.022 2504.5029 2153.3679 2151.5472 
2045 2023 2129.9589 2162.9916 2319.8319 2108.1105 1959.0732 2146.8654 2120.8554 2133.3402 2133.6003 2132.82 2136.9816 2500.8615 2153.1078 2148.1659 
2048 2009 2134.6407 2174.9562 2305.5264 2111.4918 1944.7677 2147.9058 2126.3175 2139.8427 2140.623 2146.3452 2141.9235 2502.162 2156.7492 2151.5472 
2049 2004 2139.3225 2187.9612 2287.8396 2108.8908 1925.0001 2147.9058 2132.82 2150.5068 2151.027 2148.9462 2145.825 2488.3767 2161.431 2155.9689 
2048 2033 2130.9993 2179.1178 2205.3879 2099.5272 1932.0228 2146.6053 2132.2998 2143.224 2143.7442 2142.1836 2138.8023 2487.0762 2157.2694 2151.027 
2039 2040 2120.3352 2170.5345 1941.9066 2087.5626 1934.6238 2144.0043 2133.8604 2136.4614 2134.9008 2133.0801 2131.5195 2441.2986 2151.027 2144.7846 
2028 2038 2123.7165 2181.4587 2176.7769 2087.3025 1921.3587 2145.0447 2133.0801 2143.4841 2141.4033 2135.9412 2136.2013 2295.6426 2154.4083 2146.6053 
2032 2035 2126.0574 2185.6203 3157.8741 2091.204 1923.4395 2145.0447 2129.4387 2146.8654 2148.1659 2170.7946 2139.3225 2125.7973 2158.0497 2147.9058 
2039 2028 2118.2544 2176.5168 3836.9952 2084.1813 1929.1617 2144.0043 2128.9185 2141.4033 2145.3048 2210.5899 2138.022 2011.3533 2154.1482 2145.0447 
2041 2025 2113.8327 2177.8173 3777.1722 2072.2167 1916.1567 2144.0043 2131.2594 2143.224 2145.5649 2221.7742 2142.7038 2085.2217 2152.5876 2145.3048 
2039 2026 2111.7519 2179.3779 3663.5085 2064.6738 1909.6542 2140.623 2130.9993 2147.3856 2147.9058 2214.4914 2144.0043 2380.1751 2153.3679 2146.3452 
2036 2029 2104.4691 2173.6557 3659.607 2064.6738 1921.3587 2136.9816 2132.0397 2145.0447 2144.2644 2203.5672 2137.2417 2648.5983 2151.5472 2145.5649 
2038 2034 2101.0878 2177.8173 3530.8575 2069.8758 1930.4622 2139.5826 2136.7215 2149.9866 2147.6457 2206.1682 2139.3225 2699.5779 2154.6684 2147.9058 
2042 2037 2098.7469 2173.9158 3414.8529 2057.391 1927.6011 2139.5826 2138.5422 2157.7896 2156.7492 2226.456 2141.6634 2637.1539 2156.4891 2147.9058 
2046 2031 2094.5853 2159.0901 3336.3027 2029.3002 1917.1971 2135.9412 2137.7619 2153.8881 2154.9285 2229.8373 2132.2998 2576.5506 2148.9462 2144.7846 
2050 2026 2102.1282 2166.3729 3269.457 2029.0401 1919.0178 2141.1432 2135.1609 2144.0043 2143.4841 2213.451 2133.8604 2540.3967 2146.8654 2147.1255 
2050 2019 2115.6534 2187.9612 3237.2046 2056.6107 1939.5657 2149.9866 2132.2998 2145.825 2145.5649 2213.7111 2150.7669 2582.5329 2158.3098 2155.9689 
2055 2004 2116.9539 2193.1632 3186.225 2066.2344 1941.1263 2150.2467 2134.6407 2157.0093 2158.0497 2215.0116 2152.5876 2628.0504 2164.2921 2158.83 
2058 2000 2109.1509 2183.2794 3124.0611 2050.1082 1918.7577 2144.5245 2139.8427 2152.5876 2152.0674 2207.4687 2136.4614 2607.5025 2153.8881 2151.8073 
2064 1991 2099.5272 2171.3148 3071.2608 2033.7219 1924.74 2141.6634 2137.7619 2138.5422 2134.1205 2212.6707 2122.6761 2567.187 2142.7038 2144.7846 
2067 1989 2099.7873 2171.5749 3033.2862 2036.0628 1954.9116 2144.7846 2134.9008 2141.1432 2133.3402 2218.653 2121.6357 2542.4775 2143.4841 2145.825 
2069 1989 2107.3302 2182.4991 3001.554 2044.386 1953.351 2147.1255 2138.2821 2149.4664 2144.5245 2212.4106 2127.0978 2524.2705 2148.426 2148.426 
2068 1990 2104.7292 2180.4183 2964.8799 2038.4037 1930.9824 2145.0447 2138.5422 2144.2644 2144.5245 2204.3475 2126.8377 2487.0762 2146.8654 2144.2644 
2067 1993 2099.2671 2172.0951 2928.4659 2032.1613 1928.6415 2144.0043 2136.2013 2147.1255 2143.7442 2206.1682 2121.1155 2461.5864 2145.5649 2147.9058 
2065 1995 2104.4691 2176.7769 2902.4559 2038.6638 1940.8662 2146.3452 2138.022 2156.4891 2149.9866 2220.2136 2121.3756 2458.4652 2149.7265 2159.6103 
2064 1999 2107.5903 2183.0193 2875.6656 2040.2244 1952.0505 2146.8654 2138.8023 2149.7265 2148.9462 2226.1959 2123.9766 2451.4425 2149.9866 2161.1709 
2064 2002 2101.8681 2179.638 2833.5294 2033.4618 1952.8308 2144.7846 2137.5018 2143.224 2144.5245 2213.451 2122.1559 2437.137 2145.825 2156.4891 
2065 2004 2094.5853 2168.7138 2789.5725 2025.1386 1939.3056 2141.6634 2139.0624 2146.6053 2141.9235 2200.1859 2118.5145 2420.2305 2142.1836 2155.4487 
2066 2004 2088.8631 2157.5295 2759.4009 2013.9543 1940.6061 2139.0624 2138.5422 2145.3048 2138.5422 2202.7869 2116.4337 2404.1043 2140.623 2154.1482 
2066 2003 2092.7646 2161.9512 2740.4136 2015.5149 1952.3106 2141.4033 2138.022 2144.7846 2140.623 2216.052 2119.815 2394.4806 2142.4437 2153.8881 
2063 2000 2095.1055 2178.5976 2697.4971 2030.3406 1918.7577 2140.3629 2145.825 2157.5295 2150.5068 2207.9889 2120.0751 2369.2509 2145.0447 2155.7088 
2058 2000 2084.9616 2168.4537 2672.2674 2019.9366 1927.6011 2135.6811 2140.1028 2151.2871 2145.3048 2204.8677 2114.3529 2352.0843 2141.4033 2151.5472 
2057 2002 2086.5222 2161.1709 2655.8811 2015.5149 1962.1944 2142.1836 2136.7215 2147.1255 2145.3048 2212.9308 2115.1332 2346.6222 2142.7038 2152.8477 
2057 2008 2091.7242 2163.2517 2645.7372 2018.1159 1971.8181 2148.1659 2138.2821 2151.8073 2146.3452 2210.0697 2121.1155 2344.0212 2145.5649 2154.9285 
2053 2013 2092.7646 2169.7542 2630.1312 2022.0174 1949.9697 2142.9639 2139.0624 2155.9689 2147.6457 2202.5268 2123.4564 2344.5414 2148.426 2156.229 
2049 2020 2088.0828 2172.0951 2618.4267 2024.0982 1940.8662 2136.9816 2136.7215 2149.9866 2150.5068 2210.0697 2116.4337 2340.9 2146.0851 2153.3679 
2049 2023 2082.8808 2167.4133 2615.3055 2021.7573 1952.3106 2137.2417 2134.6407 2145.3048 2153.1078 2217.0924 2110.7115 2328.1551 2140.1028 2148.9462 
2051 2028 2085.2217 2166.3729 2607.7626 2021.7573 1953.6111 2141.6634 2134.9008 2146.8654 2153.3679 2210.3298 2117.9943 2323.9935 2141.9235 2151.2871 
2052 2029 2089.6434 2172.8754 2603.0808 2027.7396 1956.9924 2146.0851 2138.5422 2147.6457 2151.027 2200.446 2125.7973 2328.4152 2146.6053 2153.8881 
2050 2032 2086.002 2174.9562 2607.5025 2027.9997 1970.5176 2143.4841 2139.0624 2145.3048 2146.8654 2197.0647 2122.1559 2323.4733 2142.1836 2148.9462 
2045 2040 2078.9793 2167.6734 2599.1793 2019.6765 1964.5353 2137.7619 2137.2417 2144.2644 2145.825 2199.1455 2116.4337 2315.1501 2137.2417 2144.5245 
2047 2043 2078.4591 2163.7719 2579.9319 2012.9139 1946.0682 2137.2417 2138.022 2145.5649 2146.6053 2203.5672 2114.8731 2324.7738 2138.8023 2147.3856 
2049 2051 2077.9389 2160.9108 2567.187 2011.0932 1952.8308 2136.9816 2139.3225 2146.6053 2145.0447 2202.7869 2112.7923 2355.2055 2136.4614 2148.426 
2048 2054 2073.2571 2153.3679 2556.2628 2010.573 1969.4772 2135.421 2138.2821 2144.0043 2142.1836 2193.6834 2110.4514 2398.3821 2134.3806 2146.6053 
2046 2062 2076.6384 2160.3906 2548.98 2013.9543 1952.8308 2136.7215 2137.7619 2145.3048 2143.224 2190.8223 2112.5322 2451.1824 2140.8831 2151.8073 
2046 2063 2087.8227 2173.6557 2542.4775 2019.1563 1942.4268 2138.8023 2139.5826 2152.0674 2151.2871 2199.1455 2118.2544 2505.0231 2146.8654 2160.6507 
2048 2061 2091.7242 2164.8123 2527.3917 2014.2144 1969.4772 2137.5018 2139.3225 2152.3275 2154.4083 2200.9662 2121.8958 2544.5583 2145.5649 2162.9916 
2047 2061 2089.1232 2153.3679 2516.2074 2005.1109 1983.5226 2137.2417 2138.022 2147.3856 2148.6861 2194.7238 2123.9766 2568.4875 2145.825 2161.6911 
2044 2061 2092.2444 2165.3325 2501.6418 2008.7523 1965.3156 2139.8427 2139.3225 2148.1659 2150.7669 2197.0647 2126.0574 2590.3359 2150.5068 2164.032 
2044 2061 2093.5449 2180.1582 2467.0485 2020.4568 1962.9747 2141.6634 2138.5422 2149.4664 2157.7896 2206.6884 2126.3175 2602.0404 2150.7669 2163.5118 
2044 2062 2085.4818 2171.0547 2424.3921 2019.1563 1971.8181 2139.3225 2134.9008 2144.7846 2152.5876 2200.7061 2122.6761 2597.6187 2144.5245 2155.9689 
2047 2061 2081.8404 2156.4891 2393.1801 2007.972 1965.3156 2137.2417 2138.8023 2145.3048 2145.3048 2182.4991 2119.5549 2614.2651 2144.5245 2153.3679 
2047 2060 2086.5222 2158.3098 2379.3948 2009.2725 1968.6969 2138.5422 2141.4033 2149.9866 2150.5068 2186.4006 2121.8958 2655.8811 2147.9058 2155.7088 
2046 2059 2087.5626 2166.633 2382.516 2012.6538 1969.9974 2138.2821 2132.82 2143.7442 2152.3275 2200.1859 2121.6357 2688.9138 2142.9639 2153.8881 
2048 2057 2087.0424 2167.6734 2392.3998 2012.9139 1959.0732 2136.7215 2131.2594 2136.4614 2145.3048 2191.6026 2120.0751 2720.646 2139.8427 2153.3679 
2048 2057 2089.9035 2163.5118 2396.5614 2014.4745 1968.6969 2140.1028 2138.5422 2141.4033 2145.3048 2182.4991 2122.1559 2758.6206 2144.2644 2157.2694 
2047 2058 2087.5626 2160.1305 2392.6599 2011.0932 1979.6211 2142.1836 2136.9816 2149.9866 2154.1482 2190.8223 2120.3352 2775.5271 2144.0043 2156.4891 
2047 2061 2077.6788 2160.6507 2382.7761 2009.0124 1963.2348 2137.2417 2129.9589 2147.1255 2150.2467 2192.3829 2113.8327 2770.8453 2136.4614 2147.1255 
2045 2070 2070.9162 2162.7315 2378.0943 2016.8154 1951.2702 2132.82 2129.4387 2135.421 2134.6407 2183.5395 2109.9312 2767.7241 2132.0397 2140.3629 
2039 2082 2069.8758 2159.6103 2380.1751 2020.4568 1961.4141 2133.3402 2129.1786 2130.219 2129.6988 2180.4183 2106.81 2758.3605 2130.9993 2140.3629 
2036 2084 2072.4768 2161.1709 2379.6549 2021.2371 1963.2348 2135.6811 2129.1786 2136.4614 2138.022 2181.7188 2107.5903 2736.252 2133.8604 2144.7846 
2038 2073 2078.4591 2175.2163 2380.6953 2033.2017 1961.4141 2138.022 2131.2594 2141.1432 2143.224 2182.239 2116.1736 2708.4213 2139.0624 2148.6861 
2042 2066 2074.8177 2176.7769 2383.0362 2037.1032 1969.7373 2137.2417 2130.9993 2138.2821 2139.8427 2175.9966 2113.5726 2665.7649 2134.3806 2146.0851 
2044 2060 2064.9339 2165.8527 2391.3594 2030.0805 1974.6792 2136.9816 2132.0397 2136.7215 2137.5018 2170.5345 2103.9489 2619.7272 2129.6988 2139.5826 
2043 2058 2063.8935 2162.9916 2419.4502 2029.5603 1981.4418 2139.5826 2132.82 2135.421 2135.6811 2179.638 2104.9893 2598.399 2131.7796 2139.8427 
2042 2057 2063.1132 2160.9108 2453.2632 2023.3179 1983.5226 2136.9816 2132.82 2135.6811 2136.2013 2181.1986 2107.8504 2592.9369 2130.219 2143.7442 
2039 2062 2060.2521 2163.2517 2470.6899 2017.8558 1969.2171 2132.0397 2136.9816 2143.7442 2144.0043 2173.3956 2107.3302 2581.2324 2129.6988 2144.2644 
2041 2066 2067.0147 2172.0951 2477.7126 2029.8204 1964.5353 2135.421 2138.5422 2147.9058 2149.2063 2181.1986 2112.5322 2573.4294 2136.7215 2147.9058 
2044 2065 2076.8985 2170.2744 2483.6949 2036.583 1987.9443 2139.5826 2135.6811 2142.9639 2144.5245 2187.7011 2119.0347 2575.2501 2142.7038 2154.9285 
2049 2063 2071.9566 2159.8704 2476.152 2025.1386 1999.9089 2135.6811 2132.5599 2139.0624 2138.2821 2176.5168 2114.8731 2559.384 2138.5422 2151.5472 
2056 2057 2062.3329 2154.9285 2460.8061 2015.775 1979.1009 2129.9589 2132.2998 2139.8427 2138.5422 2171.3148 2105.5095 2524.2705 2130.7392 2142.1836 
2053 2058 2060.5122 2151.027 2456.9046 2012.6538 1972.0782 2128.3983 2133.8604 2138.2821 2137.7619 2174.6961 2101.3479 2514.3867 2128.9185 2139.3225 
2043 2063 2066.2344 2159.3502 2458.9854 2020.977 1984.0428 2132.2998 2137.5018 2138.5422 2137.2417 2174.9562 2109.411 2476.152 2135.421 2145.5649 
2038 2064 2072.2167 2173.9158 2450.9223 2031.9012 1986.3837 2136.9816 2137.5018 2142.7038 2138.8023 2176.2567 2118.2544 2303.9658 2139.8427 2151.8073 
2032 2068 2071.6965 2166.633 2435.8365 2022.7977 1988.9847 2137.2417 2132.2998 2141.9235 2139.8427 2177.2971 2114.613 2109.1509 2137.5018 2151.2871 
2033 2068 2072.2167 2158.83 2410.8669 2015.5149 1997.568 2137.5018 2132.82 2137.7619 2139.8427 2178.5976 2109.9312 2058.1713 2136.4614 2151.027 
2035 2066 2078.9793 2170.7946 2373.6726 2029.5603 1999.9089 2140.623 2136.9816 2138.5422 2139.3225 2181.1986 2112.012 2087.8227 2139.0624 2155.1886 
2034 2062 2077.4187 2168.4537 2374.1928 2027.9997 2003.8104 2140.1028 2133.8604 2140.3629 2137.5018 2173.9158 2110.9716 2095.8858 2138.5422 2153.628 
2032 2054 2068.0551 2153.628 2456.6445 2011.0932 2007.7119 2136.4614 2128.9185 2136.4614 2134.1205 2162.4714 2102.6484 2111.7519 2133.6003 2145.825 
2032 2049 2066.7546 2157.0093 2573.1693 2013.6942 2000.4291 2135.9412 2131.2594 2133.3402 2131.5195 2166.1128 2100.3075 2141.6634 2132.5599 2145.0447 
2032 2048 2073.2571 2166.3729 2658.7422 2027.7396 2004.0705 2137.5018 2138.022 2136.4614 2132.2998 2174.1759 2104.7292 2143.224 2136.9816 2148.6861 
2033 2045 2081.0601 2170.2744 2695.1562 2037.3633 2008.7523 2141.6634 2139.8427 2142.1836 2139.0624 2173.3956 2108.8908 2119.0347 2141.1432 2149.7265 
2032 2044 2081.5803 2169.234 2676.429 2034.5022 2001.7296 2141.9235 2136.4614 2140.623 2139.0624 2167.9335 2110.1913 2075.8581 2139.8427 2147.3856 
2034 2047 2068.8354 2156.4891 2643.9165 2018.1159 2017.8558 2135.1609 2130.7392 2129.1786 2124.2367 2157.5295 2101.0878 2026.6992 2131.5195 2139.8427 
2032 2047 2060.2521 2147.9058 2632.9923 2018.376 2036.8431 2130.7392 2127.8781 2125.017 2119.815 2152.5876 2090.9439 1974.4191 2126.5776 2134.6407 
2030 2044 2066.4945 2157.5295 2616.3459 2031.9012 2012.6538 2131.7796 2128.6584 2133.0801 2131.5195 2161.9512 2096.406 1946.0682 2130.219 2138.022 
2032 2042 2072.7369 2167.4133 2575.7703 2026.9593 1991.0655 2135.1609 2133.6003 2137.7619 2134.6407 2169.4941 2104.4691 1997.568 2132.2998 2142.1836 
2036 2034 2072.7369 2161.6911 2432.7153 2014.7346 2019.4164 2139.3225 2136.9816 2136.2013 2129.1786 2164.8123 2101.3479 2081.8404 2130.7392 2144.0043 
2039 2031 2073.2571 2154.1482 2152.3275 2014.4745 2038.9239 2140.1028 2133.0801 2135.9412 2130.219 2156.229 2100.5676 2097.4464 2134.3806 2145.0447 
2042 2028 2072.4768 2160.9108 1919.0178 2016.8154 2014.7346 2137.2417 2131.5195 2135.421 2133.0801 2154.9285 2103.6888 2051.4087 2136.2013 2142.7038 
2039 2024 2070.396 2165.8527 1846.9701 2019.1563 2006.4114 2138.5422 2133.6003 2132.2998 2131.5195 2160.6507 2100.3075 2000.9493 2130.7392 2139.0624 
2036 2024 2064.9339 2151.027 1800.1521 2022.0174 2033.2017 2136.7215 2127.618 2127.8781 2128.9185 2163.5118 2096.406 1940.346 2128.1382 2137.7619 
2031 2032 2061.8127 2145.3048 1721.3418 2023.8381 2041.0047 2131.5195 2122.6761 2131.5195 2130.219 2161.431 2099.2671 1876.3614 2130.4791 2137.5018 
2029 2035 2066.7546 2165.0724 1692.7308 2029.5603 2015.775 2134.3806 2130.219 2139.3225 2133.3402 2157.2694 2104.209 1838.6469 2131.7796 2138.8023 
2031 2043 2065.4541 2170.0143 1706.256 2033.982 2009.7927 2135.1609 2130.9993 2131.7796 2127.3579 2153.1078 2101.8681 1807.9551 2131.7796 2138.5422 
2033 2045 2055.5703 2149.9866 1739.5488 2030.0805 2029.5603 2130.219 2122.416 2119.5549 2119.0347 2155.9689 2094.3252 1784.8062 2131.5195 2134.1205 
2032 2040 2053.2294 2144.2644 1807.9551 2025.3987 2029.8204 2129.9589 2123.1963 2124.4968 2122.416 2163.2517 2093.2848 1798.0713 2129.6988 2130.4791 
2034 2039 2058.4314 2156.4891 1885.725 2027.4795 2014.2144 2131.2594 2130.219 2132.5599 2128.1382 2159.8704 2099.007 1838.3868 2129.6988 2130.9993 
2036 2032 2061.2925 2163.2517 1953.351 2031.9012 2012.9139 2131.7796 2131.2594 2132.5599 2129.9589 2153.1078 2100.3075 1880.523 2130.7392 2133.0801 
2037 2029 2061.5526 2160.3906 2005.371 2034.2421 2030.3406 2134.3806 2129.9589 2135.6811 2133.0801 2155.9689 2099.2671 1922.6592 2132.2998 2134.6407 
2039 2028 2058.6915 2152.8477 2035.8027 2031.9012 2044.6461 2134.1205 2129.4387 2139.3225 2135.6811 2162.7315 2099.2671 1962.9747 2132.82 2134.1205 
2038 2029 2059.7319 2154.4083 2063.3733 2028.5199 2042.3052 2133.0801 2129.1786 2137.2417 2132.82 2166.633 2100.3075 2003.5503 2130.9993 2134.6407 
2038 2032 2068.8354 2166.633 2115.9135 2034.2421 2044.386 2138.2821 2130.219 2136.9816 2133.6003 2167.1532 2107.5903 2048.5476 2134.1205 2139.3225 
2036 2044 2073.2571 2171.0547 2170.2744 2047.5072 2055.8304 2141.9235 2130.4791 2139.3225 2139.0624 2166.3729 2117.214 2081.8404 2143.4841 2142.9639 
2036 2052 2070.9162 2165.3325 2197.3248 2049.0678 2052.9693 2138.2821 2128.9185 2138.8023 2137.5018 2164.5522 2116.6938 2097.9666 2145.3048 2141.9235 
2037 2063 2065.7142 2159.6103 2217.6126 2036.583 2045.1663 2133.8604 2126.0574 2132.0397 2129.4387 2160.3906 2107.5903 2099.2671 2135.421 2135.6811 
2037 2065 2059.992 2156.4891 2254.0266 2035.8027 2053.7496 2133.6003 2123.7165 2128.1382 2128.6584 2161.1709 2103.1686 2087.8227 2128.9185 2128.9185 
2041 2064 2060.5122 2155.7088 2300.0643 2041.0047 2058.1713 2136.7215 2125.5372 2133.0801 2131.2594 2161.6911 2105.7696 2099.2671 2129.6988 2130.4791 
2039 2058 2068.8354 2159.3502 2350.5237 2030.8608 2048.8077 2140.3629 2129.4387 2138.022 2130.9993 2156.7492 2107.3302 2151.2871 2130.9993 2138.2821 
2041 2051 2069.0955 2160.1305 2400.4629 2024.6184 2048.2875 2139.3225 2131.7796 2138.2821 2134.3806 2153.628 2106.0297 2196.0243 2131.5195 2140.3629 
2043 2047 2058.9516 2152.8477 2443.3794 2032.4214 2052.7092 2133.0801 2129.9589 2135.421 2136.7215 2150.2467 2102.1282 2248.3044 2128.1382 2133.3402 
2050 2047 2057.6511 2149.7265 2479.2732 2035.0224 2049.588 2129.9589 2125.5372 2130.219 2129.9589 2140.623 2097.9666 2350.0035 2125.7973 2130.7392 
2052 2047 2065.4541 2154.1482 2507.364 2030.0805 2048.8077 2133.6003 2125.017 2128.6584 2126.5776 2140.8831 2099.5272 2430.1143 2128.6584 2136.4614 
2050 2046 2071.1763 2158.3098 2528.172 2035.8027 2058.6915 2138.022 2129.4387 2131.5195 2131.5195 2156.4891 2108.1105 2443.1193 2133.6003 2140.3629 
2050 2046 2074.2975 2156.229 2538.3159 2043.8658 2067.0147 2139.5826 2129.6988 2131.7796 2130.219 2156.7492 2112.7923 2448.5814 2134.3806 2136.9816 
2052 2048 2073.5172 2150.5068 2534.4144 2038.1436 2060.2521 2137.5018 2124.7569 2129.6988 2123.4564 2139.3225 2109.1509 2458.4652 2132.2998 2134.1205 
2053 2051 2069.0955 2151.5472 2526.6114 2029.5603 2046.987 2133.0801 2123.4564 2128.6584 2123.1963 2137.2417 2105.7696 2444.4198 2131.2594 2133.8604 
2053 2052 2070.6561 2155.1886 2525.3109 2028.78 2046.2067 2131.7796 2123.9766 2131.2594 2130.219 2149.2063 2105.5095 2439.738 2129.9589 2133.3402 
2058 2056 2075.3379 2151.8073 2525.0508 2031.381 2053.7496 2131.7796 2123.9766 2135.1609 2133.6003 2146.8654 2106.2898 2453.7834 2130.219 2133.8604 
2060 2057 2070.9162 2141.6634 2519.0685 2025.1386 2059.7319 2128.6584 2123.7165 2133.6003 2131.5195 2140.3629 2106.81 2446.5006 2129.4387 2132.5599 
2062 2055 2065.9743 2140.8831 2514.9069 2020.4568 2054.5299 2127.618 2121.8958 2127.8781 2129.1786 2142.4437 2105.7696 2424.6522 2127.3579 2128.3983 
2063 2051 2072.2167 2152.8477 2512.566 2029.3002 2045.9466 2130.7392 2121.1155 2130.4791 2130.4791 2139.8427 2108.6307 2416.0689 2129.6988 2129.9589 
2060 2043 2078.199 2157.7896 2507.6241 2036.0628 2052.4491 2131.5195 2121.8958 2135.1609 2131.7796 2135.6811 2113.0524 2401.2432 2132.5599 2135.421 
2059 2037 2072.7369 2145.825 2498.5206 2032.1613 2058.6915 2129.1786 2121.8958 2129.9589 2128.1382 2134.9008 2110.4514 2346.8823 2130.219 2132.82 
2054 2031 2067.795 2137.2417 2486.0358 2030.8608 2054.2698 2127.618 2122.1559 2130.219 2128.3983 2133.3402 2104.4691 2275.0947 2127.618 2126.8377 
2053 2031 2074.5576 2148.6861 2481.0939 2036.3229 2058.6915 2129.6988 2123.1963 2138.5422 2133.6003 2136.7215 2105.7696 2229.3171 2131.2594 2129.6988 
2052 2037 2083.9212 2158.3098 2480.0535 2033.4618 2061.5526 2130.7392 2124.2367 2139.0624 2133.8604 2144.7846 2111.7519 2217.3525 2135.421 2135.6811 
2053 2040 2086.002 2151.5472 2474.5914 2027.7396 2051.9289 2130.7392 2126.8377 2136.2013 2132.2998 2145.3048 2113.8327 2238.9408 2134.6407 2136.7215 
2052 2040 2087.0424 2148.426 2470.95 2034.5022 2059.7319 2133.0801 2127.3579 2138.2821 2131.5195 2142.1836 2115.6534 2299.0239 2135.421 2136.9816 
2052 2036 2090.4237 2151.8073 2471.4702 2040.2244 2079.2394 2134.6407 2125.017 2137.2417 2130.219 2145.3048 2117.4741 2374.4529 2137.2417 2138.2821 
2055 2034 2087.5626 2153.3679 2464.7076 2034.7623 2071.6965 2132.5599 2124.7569 2132.0397 2130.219 2145.5649 2112.012 2435.0562 2133.0801 2134.6407 
2054 2033 2084.9616 2152.3275 2456.9046 2030.8608 2063.3733 2131.7796 2123.9766 2130.9993 2129.1786 2144.0043 2108.6307 2481.8742 2129.9589 2129.9589 
2053 2034 2087.8227 2149.7265 2453.7834 2036.0628 2070.1359 2134.9008 2122.9362 2128.3983 2123.4564 2147.1255 2112.7923 2512.0458 2133.3402 2132.2998 
2051 2033 2091.7242 2155.1886 2451.7026 2042.5653 2061.0324 2137.5018 2126.0574 2128.9185 2125.2771 2148.1659 2116.6938 2514.9069 2138.022 2136.9816 
2048 2032 2093.2848 2163.5118 2447.0208 2044.1259 2057.1309 2137.7619 2127.0978 2134.1205 2130.7392 2139.8427 2118.7746 2496.6999 2141.1432 2136.4614 
2046 2030 2088.3429 2154.9285 2434.2759 2036.583 2063.3733 2133.0801 2124.4968 2132.2998 2126.0574 2137.2417 2115.3933 2455.0839 2136.9816 2129.9589 
2045 2034 2078.7192 2137.5018 2415.0285 2023.3179 2057.1309 2126.5776 2122.1559 2125.2771 2119.0347 2138.8023 2102.3883 2396.5614 2125.2771 2123.4564 
2042 2037 2077.9389 2139.3225 2410.0866 2022.2775 2055.0501 2126.0574 2120.0751 2126.8377 2121.6357 2132.5599 2102.6484 2370.0312 2126.8377 2124.7569 
2040 2036 2090.4237 2157.7896 2434.2759 2037.8835 2059.992 2134.1205 2124.7569 2138.022 2132.5599 2136.7215 2121.8958 2385.6372 2140.8831 2133.8604 
2037 2033 2093.0247 2161.6911 2452.743 2045.4264 2055.8304 2138.5422 2131.7796 2141.6634 2139.3225 2145.0447 2121.3756 2396.5614 2139.8427 2134.9008 
2027 2037 2079.4995 2141.9235 2438.6976 2033.7219 2058.9516 2132.2998 2128.1382 2133.8604 2133.0801 2130.219 2105.5095 2399.6826 2129.1786 2125.2771 
2025 2050 2075.598 2135.6811 2418.6699 2028.5199 2069.3556 2128.1382 2121.6357 2130.219 2124.7569 2114.613 2107.3302 2402.8038 2129.1786 2122.9362 
