# H:M:S.f Gyro(x) Gyro(y) F3 FC5 AF3 F7 T7 P7 O1 O2 P8 T8 F8 AF4 FC6 F4
17:34:12.872000 1 0 0 12 4 -3 -1 30 -27 -90 -5 -5 -16 92 -3 1 -5 7 -43 
17:34:12.872000 1 0 0 -29 -27 -7 -1 25 -25 -91 10 -7 -28 93 -1 1 9 17 -34 
17:34:12.872000 1 0 0 -40 -34 -3 -17 19 -39 -97 10 -18 -52 94 -8 1 11 9 -43 
17:34:12.873000 1 0 0 -55 -48 -3 -31 19 -52 -97 -9 -9 -58 95 -23 1 0 3 -64 
17:34:12.873000 1 0 0 -52 -46 2 -13 53 -31 -80 -17 18 -31 96 -10 1 -7 -4 -41 
17:34:12.873000 1 0 0 -28 -32 3 -4 66 -20 -77 -14 22 -26 97 -9 1 -10 -18 -20 
17:34:12.874000 1 0 0 -50 -62 -6 -17 43 -35 -91 -15 1 -41 98 -30 1 -15 -22 -32 
17:34:12.876000 1 0 0 -30 -37 2 -28 25 -51 -89 -28 -9 -55 99 -44 1 -15 -18 -43 
17:34:12.891000 1 0 0 -32 -33 -11 -26 37 -44 -84 -27 -7 -64 100 -34 1 -16 -20 -49 
17:34:12.892000 1 0 0 21 0 2 -19 39 -38 -73 -25 2 -64 101 -33 1 -13 -18 -43 
17:34:12.910000 1 0 0 28 11 -2 -10 40 -20 -78 -21 5 -44 102 -25 1 -5 -20 -35 
17:34:12.910000 1 0 0 38 38 4 -6 40 -10 -78 -14 6 -29 103 -14 1 -1 -23 -29 
17:34:12.916000 0 0 0 34 16 -19 -12 34 -25 -93 -9 -5 -37 104 -13 0 -8 -7 -49 
17:34:12.930000 0 0 0 55 33 -5 -33 8 -60 -91 -36 -19 -61 105 -38 0 -17 2 -62 
17:34:12.930000 0 0 0 32 17 -16 -41 3 -51 -103 -43 -21 -59 106 -45 0 -14 -20 -64 
17:34:12.948000 0 0 0 55 20 -13 -24 11 -21 -97 -16 -7 -36 107 -28 0 -6 -25 -51 
17:34:12.948000 0 0 0 25 -6 -19 -16 11 -19 -98 1 -12 -32 108 -10 0 -7 -12 -54 
17:34:12.955000 0 0 0 42 31 4 -32 15 -36 -90 -14 -19 -44 109 -24 0 -8 -2 -49 
17:34:12.966000 0 0 0 23 11 2 -51 4 -60 -91 -24 -17 -50 110 -43 0 0 9 -54 
17:34:12.971000 0 0 0 25 5 11 -56 -35 -92 -81 -33 -14 -62 111 -47 0 -9 6 -66 
17:34:12.985000 0 0 0 -8 -9 11 -37 -27 -58 -78 -36 -8 -44 112 -42 0 -19 -16 -49 
17:34:12.986000 0 0 0 -1 -3 6 -13 -8 10 -88 -21 -10 -3 113 -29 0 -1 -6 -16 
17:34:13.003000 0 0 0 -4 -14 -2 -6 -47 19 -98 -19 -25 -6 114 -19 0 7 8 -26 
17:34:13.003000 0 0 0 -25 -34 -4 -2 -73 14 -95 -23 -33 -29 115 -6 0 -10 -9 -42 
17:34:13.010000 0 0 0 -17 -14 -9 0 -77 38 -98 -17 -32 -26 116 -7 0 -10 -18 -37 
17:34:13.022000 0 0 0 -54 -20 -33 -5 -102 48 -105 -10 -46 -22 117 -13 0 -4 -13 -41 
17:34:13.026000 0 0 0 -21 13 -18 -16 -122 22 -91 -24 -51 -33 118 -26 0 -11 -21 -45 
17:34:13.041000 0 0 0 -21 -7 -15 -11 -103 27 -101 -12 -36 -19 119 -7 0 3 -13 -45 
17:34:13.042000 0 0 0 1 10 -5 14 -86 65 -100 28 -20 16 120 25 0 35 17 -19 
17:34:13.050000 0 0 0 7 10 -10 44 -66 98 -89 47 -17 43 121 37 0 41 26 8 
17:34:13.062000 0 0 0 41 20 8 31 -82 64 -82 23 -27 19 122 11 0 29 20 -3 
17:34:13.065000 0 0 0 32 12 -6 10 -81 58 -95 23 -32 8 123 22 0 24 15 -24 
17:34:13.081000 0 0 0 52 58 3 23 -58 91 -74 34 -19 32 124 52 0 24 12 -3 
17:34:13.082000 0 0 0 33 41 -6 38 -61 90 -81 36 -27 29 125 58 0 30 7 -6 
17:34:13.089000 0 0 0 57 42 10 36 -87 65 -88 31 -39 1 126 43 0 35 0 -23 
17:34:13.102000 1 0 0 30 15 -6 28 -95 67 -80 21 -46 -7 127 47 1 10 -20 -34 
17:34:13.105000 0 0 0 37 30 -5 22 -82 64 -63 6 -34 -9 234 44 0 -18 -19 -25 
17:34:13.122000 0 0 0 14 12 -12 14 -79 48 -83 12 -23 -15 234 32 0 -8 -3 -30 
17:34:13.123000 0 0 0 8 8 -6 15 -119 33 -95 18 -33 -30 234 27 0 13 -9 -51 
17:34:13.128000 0 0 0 -39 -24 -15 13 -118 24 -92 8 -35 -39 234 19 0 8 -23 -53 
17:34:13.144000 0 0 0 -50 -15 -15 10 -19 29 -77 8 -8 -22 234 15 0 -8 -10 -12 
17:34:13.145000 0 0 0 -49 -4 -8 -4 59 26 -66 8 17 -4 234 14 0 -3 -6 13 
17:34:13.152000 0 0 0 -56 -29 -17 -20 53 -4 -68 -1 7 -12 234 -2 0 -3 -22 6 
17:34:13.164000 0 0 0 -4 4 -8 -21 75 -32 -66 -25 23 -11 234 -37 0 -30 -25 25 
17:34:13.168000 0 1 1 -1 17 -6 -15 141 -29 -55 -35 55 11 234 -46 0 -40 -16 57 
17:34:13.182000 0 0 0 22 34 12 -32 145 -50 -31 -32 44 13 234 -50 0 -11 -6 62 
17:34:13.183000 0 0 0 30 24 9 -43 118 -68 -27 -23 20 7 234 -48 0 -5 1 55 
17:34:13.200000 0 0 0 68 56 21 -32 103 -66 -26 -26 24 2 234 -50 0 -28 -7 57 
17:34:13.200000 0 1 1 67 50 1 -16 113 -40 -30 -20 34 13 234 -40 0 -25 -14 57 
17:34:13.207000 0 0 0 97 77 11 -13 108 -38 -15 -19 37 20 234 -42 0 1 -1 65 
17:34:13.218000 0 0 0 90 70 -6 -19 96 -51 -32 -27 33 10 234 -46 0 -3 1 51 
17:34:13.223000 0 0 0 113 95 -15 -32 75 -80 -53 -39 21 -20 234 -62 0 -21 -9 20 
17:34:13.236000 0 0 0 65 62 -35 -36 65 -94 -57 -38 5 -41 234 -66 0 -24 -9 -11 
17:34:13.239000 0 0 0 49 58 -6 -34 70 -83 -28 -30 9 -30 16 -55 0 -7 0 -4 
17:34:13.256000 0 0 0 21 30 -13 -44 76 -75 -27 -18 11 -10 17 -51 0 10 6 2 
17:34:13.256000 0 0 0 13 24 -24 -44 70 -83 -33 -18 14 -11 18 -60 0 4 11 1 
17:34:13.262000 0 0 0 -46 -6 -26 -26 73 -79 -32 -16 18 -11 19 -58 0 0 13 1 
17:34:13.275000 0 0 0 -27 7 -4 -11 88 -66 -6 0 12 11 20 -37 0 18 16 15 
17:34:13.277000 0 0 0 -11 1 0 -13 88 -60 21 13 -51 26 21 -26 0 31 20 30 
17:34:13.294000 0 0 0 -21 -16 -7 -19 66 -66 29 6 -90 8 22 -38 0 17 21 20 
17:34:13.294000 0 0 0 8 5 -9 -19 57 -72 24 -1 30 -5 23 -44 0 11 20 7 
17:34:13.302000 0 0 0 -9 -14 -5 -9 78 -63 18 8 -65 13 24 -25 0 18 21 23 
17:34:13.312000 0 0 0 10 -3 10 -9 77 -62 20 -5 -3 16 25 -28 0 12 12 35 
17:34:13.316000 0 0 0 19 -5 -1 -17 58 -78 21 -16 1144 -9 26 -49 0 -1 3 15 
17:34:13.331000 0 0 0 47 24 0 -31 62 -105 36 -28 2496 -31 27 -71 0 -13 1 7 
17:34:13.332000 1 0 0 30 23 -21 -43 92 -102 70 -28 2715 -25 28 -67 1 -13 19 8 
17:34:13.349000 1 0 0 66 64 -12 -34 100 -93 139 -29 2425 -14 29 -58 1 -6 37 15 
17:34:13.350000 1 0 0 48 58 -24 -12 110 -93 159 -32 2449 -9 30 -46 1 -16 18 17 
17:34:13.357000 0 0 0 46 67 -13 -30 107 -111 152 -45 2484 -23 31 -62 0 -27 -8 12 
17:34:13.369000 0 0 0 46 46 -25 -43 91 -113 149 -36 2466 -28 32 -68 0 -17 -3 -8 
17:34:13.373000 0 0 0 62 52 -11 -27 76 -119 161 -34 2472 -31 33 -74 0 -9 13 -10 
17:34:13.388000 0 0 0 9 18 -18 -32 80 -125 156 -39 2350 -44 34 -75 0 -12 15 -12 
17:34:13.389000 0 0 0 48 40 -8 -57 79 -127 171 -32 2687 -60 35 -77 0 4 32 -15 
17:34:13.396000 0 0 0 38 18 -5 -66 77 -136 168 -30 3798 -66 36 -93 0 10 29 -19 
17:34:13.408000 0 0 0 13 8 19 -51 86 -134 181 -38 4818 -50 37 -91 0 -3 5 -3 
17:34:13.411000 0 0 0 -18 -12 16 -31 107 -108 203 -30 5074 -36 38 -68 0 -8 -2 19 
17:34:13.428000 0 0 0 -18 -23 0 -40 106 -114 193 -24 4962 -54 39 -76 0 -4 5 14 
17:34:13.428000 0 0 0 -28 -42 -3 -66 76 -142 160 -24 4570 -76 40 -95 0 5 7 -15 
17:34:13.436000 0 0 0 -41 -53 -7 -53 80 -120 154 -17 3717 -56 41 -73 0 16 11 -8 
17:34:13.448000 0 0 0 -17 -23 -24 -36 98 -106 148 -30 3056 -45 42 -83 0 8 10 8 
17:34:13.450000 0 0 0 -50 -35 -39 -46 94 -129 133 -44 2944 -62 43 -105 0 -16 1 -3 
17:34:13.467000 0 0 0 -20 2 -16 -51 84 -126 152 -44 2885 -62 44 -84 0 -19 -9 -4 
17:34:13.467000 0 0 0 -15 -9 -26 -32 98 -94 150 -38 2727 -51 45 -59 0 -10 -16 -2 
17:34:13.475000 0 0 0 9 4 -23 -25 113 -97 142 -41 2671 -55 46 -81 0 -9 -13 6 
17:34:13.487000 0 0 0 4 4 -20 -34 127 -98 144 -38 2621 -52 47 -80 0 -17 -11 20 
17:34:13.490000 0 0 0 36 22 4 -30 121 -83 157 -42 2528 -42 48 -59 0 -21 -17 35 
17:34:13.506000 0 0 0 41 14 -11 -15 118 -67 147 -37 2452 -35 49 -51 0 -13 -12 31 
17:34:13.507000 0 0 0 59 40 -1 -22 103 -97 157 -33 2375 -50 50 -75 0 2 10 26 
17:34:13.514000 0 0 0 38 20 -9 -22 94 -99 150 -18 2292 -48 51 -67 0 14 7 26 
17:34:13.526000 0 0 0 75 49 7 10 105 -39 146 -7 2246 -4 52 -31 0 13 -8 61 
17:34:13.529000 0 0 0 50 33 -2 22 115 -4 135 -9 2210 23 53 -26 0 9 0 82 
17:34:13.546000 0 0 0 55 33 -1 5 95 -41 136 -17 2104 1 54 -55 0 4 9 75 
17:34:13.546000 0 0 0 24 7 -13 4 87 -43 135 -13 2031 -8 55 -40 0 -1 -10 65 
17:34:13.554000 0 0 0 16 12 -1 19 88 -15 144 -6 1980 6 56 -8 0 9 -5 65 
17:34:13.566000 0 0 0 -18 -7 -3 22 72 -20 133 0 1598 1 57 -8 0 26 16 49 
17:34:13.569000 0 0 0 -41 -11 -12 24 69 -19 122 8 1026 0 58 -10 0 24 11 55 
17:34:13.585000 0 0 0 -46 -12 -10 22 71 -6 123 4 800 9 59 0 0 9 5 68 
17:34:13.586000 0 0 0 -54 -51 -9 21 64 -2 113 4 840 9 60 1 0 21 20 57 
17:34:13.593000 0 0 0 -26 -33 -3 24 50 -10 106 13 781 6 61 -14 0 46 33 47 
17:34:13.604000 0 0 0 -48 -24 -16 24 45 -16 88 11 691 2 62 -16 0 27 18 40 
17:34:13.609000 0 0 0 -1 9 -6 15 36 -27 87 -9 685 -13 63 -25 0 -3 -8 37 
17:34:13.624000 0 0 0 22 1 0 17 33 -15 88 -7 662 -9 63 -23 0 8 -3 42 
17:34:13.625000 0 0 0 48 28 25 22 42 -8 96 0 632 5 63 -20 0 24 12 58 
17:34:13.643000 0 0 0 37 29 3 18 58 -13 80 0 610 3 63 -11 0 13 -3 54 
17:34:13.643000 0 0 0 70 51 3 5 33 -37 68 -9 574 -24 63 -22 0 17 -5 41 
17:34:13.648000 0 0 0 66 36 -12 -9 -3 -53 24 -9 522 -48 63 -40 0 25 10 18 
17:34:13.662000 0 0 0 83 61 -20 -13 -1 -49 -7 -17 496 -49 63 -53 0 2 -10 18 
17:34:13.663000 0 0 0 57 34 -45 -8 26 -26 -15 -26 490 -29 63 -45 0 -16 -29 27 
17:34:13.681000 0 0 0 63 40 -16 -10 22 -26 -12 -36 472 -30 63 -51 0 -14 -12 27 
17:34:13.682000 0 0 0 9 10 -18 -15 22 -31 -38 -35 444 -39 63 -58 0 -16 -14 12 
17:34:13.688000 0 0 0 3 7 -30 -11 29 -18 -45 -18 423 -33 63 -47 0 -11 -24 13 
17:34:13.701000 0 0 0 -27 -24 -31 -9 25 -5 -36 -18 391 -30 63 -42 0 -8 -20 6 
17:34:13.703000 1 0 0 -40 -32 -12 -12 20 -10 -33 -30 361 -38 63 -53 1 -8 -7 0 
17:34:13.719000 0 0 0 -51 -33 -15 -21 12 -14 -43 -19 340 -37 63 -52 0 15 10 0 
17:34:13.720000 0 0 0 -42 -36 -21 -15 1 -7 -46 -7 316 -28 63 -36 0 19 10 5 
17:34:13.727000 0 -1 -1 -27 -35 -10 -10 1 -2 -41 -24 298 -24 63 -31 0 -4 -9 8 
17:34:13.739000 0 0 0 -53 -54 -9 -17 13 6 -45 -13 290 -24 63 -20 0 7 -1 7 
17:34:13.743000 0 0 0 -14 -18 -4 -15 16 18 -42 16 287 -22 63 -1 0 33 13 14 
17:34:13.758000 0 -1 -1 -9 -16 -7 7 27 43 -39 7 284 -2 81 15 0 7 -3 29 
17:34:13.759000 0 -1 -1 22 4 5 13 21 42 -36 -16 270 11 82 0 0 2 -1 39 
17:34:13.767000 0 -1 -1 29 7 -18 11 17 39 -73 7 246 11 83 4 0 34 21 32 
17:34:13.778000 0 -1 -1 65 48 -11 18 18 45 -90 17 239 14 84 20 0 27 13 31 
17:34:13.781000 0 -1 -1 52 43 -22 26 20 61 -96 9 236 32 85 37 0 16 0 35 
17:34:13.798000 0 -1 -1 62 63 -15 25 16 57 -89 15 222 46 86 33 0 41 22 48 
17:34:13.798000 0 -1 -1 53 46 -29 30 17 61 -103 28 199 52 87 33 0 43 32 29 
17:34:13.806000 0 -1 -1 64 46 -14 28 -2 60 -98 9 183 43 88 37 0 14 8 5 
17:34:13.817000 0 -1 -1 8 9 -26 12 -22 46 -108 5 156 27 89 43 0 21 -5 -7 
17:34:13.822000 0 -1 -1 35 35 -14 3 -30 34 -118 18 132 19 90 30 0 41 13 -3 
17:34:13.837000 0 -1 -1 29 22 -9 10 -24 54 -117 20 127 20 91 38 0 32 14 -4 
17:34:13.837000 0 -1 -1 20 25 3 22 -10 82 -100 26 132 21 92 74 0 37 7 14 
17:34:13.845000 1 -2 -2 -14 -3 0 24 8 93 -98 34 121 21 93 85 1 42 7 27 
17:34:13.857000 0 -2 -2 -15 -20 -3 3 -10 73 -110 25 85 -5 94 47 0 32 11 1 
17:34:13.860000 0 -2 -2 -27 -29 -16 -27 -53 51 -128 9 43 -44 95 21 0 29 6 -46 
17:34:13.877000 1 -2 -2 -40 -38 -32 -7 -45 92 -132 18 46 -26 96 61 1 26 -12 -39 
17:34:13.877000 1 -2 -2 -13 -20 -36 25 -11 143 -133 28 68 15 97 87 1 17 -25 0 
17:34:13.885000 1 -2 -2 -43 -28 -36 12 -6 138 -157 13 49 0 98 59 1 5 -10 -9 
17:34:13.897000 1 -2 -2 -18 11 -19 -4 -3 139 -175 -9 38 -11 99 37 1 2 8 -20 
17:34:13.900000 1 -2 -2 -14 2 -32 15 21 186 -183 6 58 25 100 71 1 9 -1 1 
17:34:13.917000 1 -2 -2 9 16 -23 20 17 187 -166 18 58 26 101 77 1 18 5 10 
17:34:13.917000 1 -2 -2 8 4 -24 13 27 190 -166 9 37 11 102 70 1 12 34 5 
17:34:13.924000 0 -2 -2 46 24 -7 18 46 234 -154 5 41 30 103 72 0 17 38 30 
17:34:13.936000 0 -2 -2 40 24 -19 22 52 261 -163 21 41 56 104 81 0 30 20 39 
17:34:13.939000 0 -2 -2 61 53 -1 14 49 235 -165 11 30 46 105 73 0 23 16 35 
17:34:13.956000 0 -2 -2 51 28 -13 6 45 220 -174 3 16 23 106 60 0 19 15 24 
17:34:13.956000 1 -1 -1 75 40 -6 7 19 215 -166 4 3 10 107 55 1 20 8 15 
17:34:13.964000 0 -1 -1 34 16 -15 3 8 205 -171 7 -7 7 108 57 0 16 9 -3 
17:34:13.974000 0 -1 -1 38 27 -12 -17 0 176 -166 -4 -15 -12 109 42 0 13 13 -6 
17:34:13.978000 0 -1 -1 11 0 -28 -14 2 173 -160 -4 -17 -12 110 43 0 16 3 12 
17:34:13.994000 0 -1 -1 4 4 -26 20 22 199 -157 -1 -6 18 111 62 0 7 -2 28 
17:34:13.994000 0 -1 -1 -30 -4 -32 24 16 183 -178 -13 -8 14 112 51 0 -18 -13 7 
17:34:14.013000 0 -1 -1 -58 -16 -37 3 -6 143 -187 -12 -27 -14 113 45 0 -14 -10 -4 
17:34:14.013000 1 -1 -1 -62 -25 -30 0 -7 126 -175 -5 -36 -17 114 60 1 9 3 2 
17:34:14.019000 1 -1 -1 -74 -56 -37 3 -8 115 -176 -14 -35 -12 115 55 1 3 -9 -4 
17:34:14.032000 1 -1 -1 -51 -39 -36 -4 -17 94 -183 -20 -35 -17 116 42 1 -10 -36 -4 
17:34:14.034000 1 -1 -1 -59 -36 -34 0 -22 81 -191 1 -39 -20 117 55 1 3 -15 -10 
17:34:14.051000 1 -1 -1 -5 -3 -14 -6 -45 47 -180 -4 -46 -41 118 31 1 13 15 -25 
17:34:14.051000 1 -1 -1 10 -7 -17 -8 -40 30 -165 -15 -52 -40 119 24 1 5 -9 -12 
17:34:14.058000 1 0 0 37 28 -2 -2 -32 36 -144 -13 -54 -24 120 38 1 2 -32 6 
17:34:14.071000 1 0 0 31 26 -19 -11 -48 34 -154 -15 -62 -31 121 39 1 -9 -21 -16 
17:34:14.073000 1 0 0 66 46 -10 -18 -50 24 -143 -21 -52 -35 122 29 1 -10 -17 2 
17:34:14.091000 1 0 0 70 40 -27 0 -26 31 -143 -7 -50 -22 123 33 1 4 -32 23 
17:34:14.091000 1 0 0 84 61 -26 0 -34 19 -147 -10 -63 -27 124 22 1 10 -27 13 
17:34:14.098000 1 0 0 43 27 -41 -18 -53 12 -159 -9 -66 -30 125 32 1 14 -11 -3 
17:34:14.111000 1 0 0 53 43 -22 -11 -73 6 -146 7 -68 -26 126 45 1 18 -3 -3 
17:34:14.113000 1 0 0 17 24 -27 10 -51 6 -139 17 -73 -14 127 48 1 27 6 3 
17:34:14.130000 1 -1 -1 15 23 -29 37 17 33 -112 20 -42 22 234 60 1 42 23 54 
17:34:14.130000 1 -1 -1 -26 -1 -42 54 45 60 -94 22 -26 61 234 61 1 35 10 93 
17:34:14.138000 1 -1 -1 -39 -5 -31 33 12 24 -78 6 -67 45 234 37 1 -2 -28 81 
17:34:14.151000 1 0 0 -46 -18 -20 0 6 -14 -66 -14 -90 16 234 17 1 -17 -39 76 
17:34:14.153000 1 0 0 -37 -30 -25 20 40 -6 -59 -7 -55 39 234 15 1 5 -14 105 
17:34:14.170000 1 0 0 -13 -28 -31 34 41 -28 -64 8 -37 53 234 21 1 22 -5 105 
17:34:14.170000 1 0 0 -33 -45 -32 11 31 -55 -57 9 -81 29 234 23 1 11 -9 77 
17:34:14.177000 1 -1 -1 -6 -14 -18 2 44 -75 -32 6 -135 17 234 7 1 15 5 72 
17:34:14.190000 1 -1 -1 -6 -19 -25 22 79 -91 -33 20 -90 61 234 11 1 41 12 123 
17:34:14.192000 1 -1 -1 44 18 -21 38 107 -99 -45 19 30 105 234 5 1 37 -5 189 
17:34:14.209000 1 -1 -1 44 23 -37 18 113 -113 -42 11 0 79 234 -5 1 8 -17 152 
17:34:14.210000 1 -1 -1 41 36 -24 -21 128 -159 -8 8 -79 0 234 3 1 -2 -14 56 
17:34:14.217000 1 -1 -1 9 20 -47 -8 274 -150 -13 17 86 -26 234 30 1 -9 -38 33 
17:34:14.229000 1 -1 -1 33 52 -37 43 506 -105 -12 5 430 9 234 10 1 -21 -58 91 
17:34:14.232000 1 -1 -1 39 26 -41 41 671 -100 -28 -8 715 19 234 -23 1 -22 -33 105 
17:34:14.249000 1 -1 -1 55 12 -36 32 764 -91 -35 -11 1062 13 234 -16 1 -22 -21 109 
17:34:14.249000 1 -1 -1 11 -6 -49 98 863 -37 -33 7 1455 43 234 22 1 -21 -47 138 
17:34:14.256000 1 -1 -1 38 28 -16 129 902 -37 -14 9 1622 45 16 14 1 -10 -43 145 
17:34:14.269000 1 -1 -1 19 -3 -4 87 898 -60 -18 -14 1625 15 17 -32 1 -12 -20 121 
17:34:14.271000 1 0 0 32 13 6 86 913 -47 4 -13 1633 20 18 -30 1 -11 -20 133 
17:34:14.288000 1 0 0 24 17 12 134 932 -15 24 14 1639 51 19 12 1 3 -25 163 
17:34:14.289000 1 0 0 17 -1 18 135 916 -19 18 -2 1585 44 20 2 1 -5 -37 167 
17:34:14.296000 2 0 0 2 -19 6 107 861 -40 9 -40 1529 19 21 -34 2 -31 -53 146 
17:34:14.308000 2 0 0 -11 -27 -5 114 818 -38 8 -22 1425 28 22 -25 2 -19 -30 137 
17:34:14.310000 2 0 0 11 -16 -4 125 809 -28 4 1 1263 42 23 -16 2 12 -11 149 
17:34:14.328000 2 0 0 -20 -26 -1 139 799 -15 6 -8 1131 49 24 -7 2 1 -25 155 
17:34:14.328000 2 0 0 5 21 25 155 745 -10 24 -16 1020 59 25 13 2 -13 -26 150 
17:34:14.335000 2 0 0 8 5 10 149 689 -5 16 5 925 62 26 20 2 5 -12 137 
17:34:14.347000 2 0 0 35 10 6 129 630 -16 12 2 885 47 27 -5 2 15 -14 130 
17:34:14.350000 3 0 0 21 5 3 130 579 -20 9 -6 763 41 28 11 3 11 -24 111 
17:34:14.366000 3 -1 -1 45 28 25 132 536 -18 11 -17 404 36 29 22 3 13 -16 96 
17:34:14.367000 3 -1 -1 50 23 4 128 502 -3 -7 -17 73 37 30 13 3 0 -7 94 
17:34:14.374000 3 0 0 80 53 11 136 461 -1 -3 -1 34 41 31 30 3 0 -11 106 
17:34:14.386000 3 0 0 65 38 2 155 423 14 5 6 43 48 32 60 3 8 -28 98 
17:34:14.389000 2 1 1 87 50 11 164 363 22 21 -17 -103 46 33 37 2 -8 -24 83 
17:34:14.405000 2 1 1 50 19 2 145 297 15 -2 -14 -284 33 34 23 2 -10 -10 63 
17:34:14.405000 2 1 1 61 29 19 121 252 19 -16 6 -335 23 35 45 2 9 -15 64 
17:34:14.423000 3 0 0 31 2 14 110 211 45 -1 -10 -335 24 36 59 3 -4 -38 57 
17:34:14.423000 3 0 0 20 1 5 103 167 55 17 -23 -361 9 37 57 3 -19 -35 30 
17:34:14.429000 3 0 0 -15 -9 -14 83 135 50 -7 -1 -399 -20 38 54 3 -4 -18 3 
17:34:14.443000 3 0 0 -47 -12 -13 64 109 59 -20 14 -389 -14 39 49 3 5 -12 6 
17:34:14.444000 3 1 1 -49 -14 5 59 95 67 -2 0 -383 8 40 47 3 -3 -25 20 
17:34:14.463000 3 1 1 -47 -55 -2 57 68 56 -6 -13 -410 1 41 50 3 -6 -31 16 
17:34:14.463000 3 1 1 -22 -48 -15 49 24 38 -16 -6 -424 -4 42 33 3 18 -12 12 
17:34:14.468000 3 1 1 -50 -37 -29 51 28 53 -12 2 -417 16 43 26 3 19 0 16 
17:34:14.482000 3 1 1 -7 4 -13 52 34 73 6 -19 -425 17 44 27 3 -17 -15 23 
17:34:14.484000 3 1 1 17 -10 -10 40 -8 72 -6 -17 -460 6 45 38 3 -15 -12 12 
17:34:14.501000 3 1 1 49 22 7 39 -34 58 -10 0 -456 2 46 37 3 17 8 18 
17:34:14.511000 2 1 1 47 35 -13 60 -14 74 -9 1 -428 13 47 43 2 8 -3 29 
17:34:14.512000 2 1 1 87 62 -2 60 -51 73 2 -14 -435 10 48 32 2 -1 -8 27 
17:34:14.515000 2 1 1 88 49 -11 50 -88 60 -17 4 -454 13 49 33 2 20 -1 16 
17:34:14.531000 2 1 1 104 69 -14 62 -76 58 -15 15 -434 25 50 46 2 18 -13 33 
17:34:14.531000 2 1 1 72 31 -37 75 -69 82 -9 8 -424 37 51 56 2 10 -6 45 
17:34:14.549000 2 1 1 74 39 -15 71 -90 90 -13 11 -444 41 52 44 2 22 12 41 
17:34:14.550000 2 1 1 31 18 -21 57 -100 81 -37 22 -457 42 53 40 2 22 -11 19 
17:34:14.555000 2 1 1 30 14 -25 62 -118 72 -31 19 -450 46 54 43 2 17 -23 20 
17:34:14.569000 2 1 1 -21 -24 -25 73 -134 73 -20 7 -440 48 55 44 2 16 -8 31 
17:34:14.570000 2 1 1 -33 -25 -7 66 -131 70 -13 3 -442 48 56 51 2 11 6 34 
17:34:14.587000 2 1 1 -28 -27 1 47 -148 58 -13 3 -453 45 57 39 2 11 13 24 
17:34:14.588000 2 1 1 -37 -46 1 52 -171 56 -21 11 -452 49 58 27 2 18 13 15 
17:34:14.594000 1 1 1 -30 -42 -5 61 -175 50 -26 6 -448 43 59 34 1 17 5 10 
17:34:14.607000 1 1 1 -34 -49 -12 45 -182 45 -20 -5 -460 22 60 37 1 13 8 6 
17:34:14.609000 1 1 1 -5 -28 -1 27 -215 32 -21 -6 -473 5 61 19 1 19 15 -7 
17:34:14.626000 1 1 1 -16 -35 -11 26 -229 25 -29 -4 -473 -1 62 13 1 11 13 -19 
17:34:14.626000 1 1 1 36 7 -5 32 -212 29 -15 -4 -458 8 63 15 1 7 11 5 
17:34:14.634000 1 1 1 41 18 -17 30 -200 37 -22 20 -454 22 63 33 1 25 10 14 
17:34:14.645000 1 1 1 61 46 -5 20 -213 23 -21 20 -451 19 63 39 1 30 15 5 
17:34:14.649000 1 1 1 61 40 -21 27 -200 33 -21 8 -442 29 63 45 1 14 14 11 
17:34:14.664000 1 1 1 69 64 -9 31 -186 37 -13 5 -442 38 63 38 1 8 8 23 
17:34:14.665000 1 1 1 45 41 -24 22 -193 27 -25 16 -453 28 63 31 1 27 11 3 
17:34:14.682000 1 1 1 74 34 -14 28 -195 29 -19 23 -434 30 63 29 1 41 15 16 
17:34:14.682000 1 1 1 33 3 -19 40 -183 42 -19 30 -423 47 63 50 1 26 0 30 
17:34:14.689000 1 1 1 42 36 -5 20 -216 13 -3 14 -449 20 63 34 1 12 -5 -1 
17:34:14.702000 1 1 1 25 17 -3 3 -242 -6 -2 0 -458 -8 63 8 1 23 9 -26 
17:34:14.703000 1 1 1 33 12 20 23 -207 20 -3 8 -427 21 63 24 1 27 4 8 
17:34:14.722000 1 1 1 4 -3 17 33 -193 29 -3 1 -421 33 63 28 1 5 -15 15 
17:34:14.722000 1 1 1 -1 -7 -1 25 -232 12 2 -6 -438 9 63 12 1 8 -5 -9 
17:34:14.728000 1 1 1 3 -15 -4 28 -234 20 -2 12 -434 15 63 25 1 28 7 -3 
17:34:14.742000 1 1 1 -4 -29 -1 42 -195 52 -1 31 -417 46 63 51 1 25 2 27 
17:34:14.743000 1 1 1 3 -18 -16 47 -192 59 2 22 -408 50 63 49 1 17 -1 30 
17:34:14.762000 1 1 1 -34 -23 -34 49 -201 55 -13 17 -408 40 63 44 1 24 -2 15 
17:34:14.762000 1 1 1 -4 21 -10 47 -206 44 -19 17 -414 36 63 29 1 27 -15 8 
17:34:14.767000 1 1 1 -6 4 -20 39 -206 39 -15 22 -423 36 81 36 1 17 -17 -1 
17:34:14.781000 1 1 1 16 14 -15 39 -206 40 2 24 -416 39 82 53 1 32 3 10 
17:34:14.782000 1 1 1 13 11 -17 42 -205 36 -13 19 -413 39 83 41 1 34 10 9 
17:34:14.800000 1 1 1 37 30 6 32 -204 23 -15 7 -407 30 84 15 1 17 3 5 
17:34:14.801000 1 1 1 46 31 -1 40 -172 47 -7 26 -395 47 85 43 1 31 6 23 
17:34:14.807000 1 1 1 88 67 12 47 -176 55 3 34 -394 57 86 58 1 47 21 43 
17:34:14.821000 1 1 1 63 39 -5 31 -203 37 -4 14 -412 43 87 43 1 23 9 19 
17:34:14.822000 1 1 1 75 54 9 24 -199 32 10 4 -407 36 88 37 1 10 -1 19 
17:34:14.830000 1 1 1 52 37 3 40 -182 39 -1 20 -391 46 89 43 1 28 6 33 
17:34:14.842000 1 1 1 65 32 0 37 -206 15 -10 6 -403 36 90 21 1 26 6 23 
17:34:14.846000 1 1 1 25 -3 -11 17 -222 1 -6 -3 -417 23 91 8 1 24 -1 5 
17:34:14.862000 1 1 1 15 13 -1 22 -202 26 5 19 -396 35 92 34 1 36 14 18 
17:34:14.862000 1 1 1 -16 -2 -8 27 -183 44 -11 18 -382 52 93 48 1 24 20 30 
17:34:14.870000 1 1 1 -46 -23 -19 23 -200 25 -18 1 -401 47 94 32 1 9 9 26 
17:34:14.882000 1 1 1 -50 -17 -15 16 -232 -4 -9 8 -416 23 95 15 1 18 11 1 
17:34:14.886000 1 1 1 -57 -52 -23 19 -229 9 -14 25 -409 13 96 25 1 24 20 -13 
17:34:14.901000 1 1 1 -43 -49 -26 12 -219 25 -25 9 -413 12 97 20 1 14 18 -8 
17:34:14.902000 1 1 1 -59 -30 -24 17 -213 25 -24 15 -416 20 98 23 1 29 25 -8 
17:34:14.909000 1 1 1 11 23 1 33 -203 26 -4 40 -393 33 99 41 1 53 23 1 
17:34:14.921000 1 1 1 29 6 -1 28 -200 33 -1 27 -389 33 100 43 1 30 3 -1 
17:34:14.925000 1 1 1 42 26 15 8 -228 10 4 -10 -411 12 101 14 1 2 6 -14 
17:34:14.941000 1 1 1 34 30 -1 4 -231 0 -6 -5 -414 12 102 12 1 13 22 -15 
17:34:14.941000 1 1 1 62 48 1 0 -226 -8 -10 -2 -398 8 103 2 1 21 19 -3 
17:34:14.949000 1 1 1 56 37 -12 -6 -232 -12 -22 -7 -410 -4 104 2 1 9 9 -23 
17:34:14.961000 1 1 1 81 61 1 8 -230 4 -11 1 -411 6 105 21 1 15 15 -18 
17:34:14.963000 1 1 1 49 27 -25 17 -210 19 -14 10 -397 15 106 28 1 25 20 -5 
17:34:14.981000 1 1 1 53 41 -19 6 -203 -4 -12 3 -386 4 107 18 1 21 13 -5 
17:34:14.981000 1 1 1 21 25 -20 -4 -204 -18 -20 -5 -396 -5 108 13 1 3 -9 -19 
17:34:14.988000 0 1 1 12 7 -17 -13 -211 -25 -21 -24 -417 -18 109 -16 0 -11 -11 -30 
17:34:15.001000 1 1 1 -39 -32 -21 -15 -193 -19 -22 -17 -414 -8 110 -21 1 5 7 -27 
17:34:15.003000 0 1 1 -20 -2 -2 -4 -169 -5 -12 5 -390 18 111 5 0 20 11 -2 
17:34:15.021000 1 1 1 -11 4 7 0 -176 -1 -13 -5 -385 22 112 3 1 8 -3 7 
17:34:15.021000 0 0 0 -23 -23 1 4 -189 -2 -16 -4 -396 13 113 -2 0 8 1 -3 
17:34:15.027000 0 0 0 -7 -21 0 1 -195 -13 -7 12 -396 7 114 4 0 23 18 -13 
17:34:15.040000 0 0 0 -28 -44 -5 -16 -209 -37 -5 3 -410 -12 115 -4 0 17 19 -26 
17:34:15.042000 0 0 0 -16 -32 7 -28 -220 -46 -11 -13 -421 -27 116 -18 0 13 6 -31 
17:34:15.059000 0 0 0 -30 -33 2 -11 -203 -18 -17 5 -407 -13 117 -3 0 23 5 -20 
17:34:15.060000 0 0 0 9 -3 3 -7 -195 -20 -12 8 -392 -12 118 -3 0 21 21 -7 
17:34:15.067000 0 0 0 8 -12 -18 -21 -196 -34 -20 -4 -388 -26 119 -5 0 10 28 -15 
17:34:15.079000 0 0 0 43 31 -8 -27 -211 -41 -8 -14 -389 -36 120 -8 0 8 22 -32 
17:34:15.082000 0 0 0 39 30 -22 -16 -207 -29 -8 -5 -399 -28 121 1 0 11 10 -48 
17:34:15.099000 0 0 0 44 48 -10 -14 -193 -23 -3 -5 -404 -23 122 -5 0 11 8 -33 
17:34:15.099000 0 0 0 39 37 -20 -11 -174 -8 -13 1 -388 -13 123 -2 0 13 13 -15 
17:34:15.106000 0 0 0 67 34 -12 12 -149 13 -5 18 -355 18 124 27 0 29 19 12 
17:34:15.118000 0 0 0 25 -1 -19 23 -138 24 -15 17 -354 40 125 40 0 29 5 18 
17:34:15.121000 0 0 0 39 33 1 2 -165 3 -10 -17 -382 21 126 -1 0 3 -5 6 
17:34:15.138000 0 0 0 13 15 1 -9 -177 -9 -5 -21 -393 3 127 -20 0 -3 6 -6 
17:34:15.138000 0 0 0 17 17 13 -3 -166 -6 2 -1 -373 2 234 1 0 5 23 0 
17:34:15.146000 0 0 0 -9 2 16 -8 -167 -3 -4 -3 -372 -3 234 8 0 1 21 -3 
17:34:15.158000 0 0 0 -14 -11 13 -16 -174 -5 -2 -10 -384 -10 234 3 0 4 8 -7 
17:34:15.160000 0 0 0 -14 -24 2 -8 -172 -11 2 -3 -372 0 234 6 0 19 5 -4 
17:34:15.177000 0 0 0 -31 -37 -5 4 -168 -8 -8 7 -357 14 234 14 0 22 21 -7 
17:34:15.177000 0 0 0 -21 -25 -9 0 -165 -6 -15 3 -365 10 234 10 0 22 25 -16 
17:34:15.185000 0 0 0 -45 -34 -21 -10 -157 -10 -12 -8 -378 6 234 10 0 16 -6 -17 
17:34:15.196000 0 0 0 -17 7 -6 -12 -147 -11 -4 -17 -365 13 234 0 0 2 -25 -6 
17:34:15.201000 0 0 0 -23 -5 -18 -9 -143 -5 -21 -2 -354 19 234 2 0 9 0 -15 
17:34:15.215000 0 0 0 2 3 -16 -16 -167 -26 -17 0 -364 4 234 -5 0 24 17 -30 
17:34:15.216000 0 0 0 -1 -6 -21 -17 -156 -22 -7 -4 -368 3 234 -10 0 16 5 -26 
17:34:15.234000 0 0 0 32 21 7 -10 -137 4 -3 -4 -360 15 234 -9 0 12 14 -5 
17:34:15.234000 0 0 0 38 20 -2 -3 -144 14 -21 2 -365 24 234 7 0 16 26 -13 
17:34:15.240000 0 0 0 58 49 7 12 -151 14 -8 0 -368 33 234 16 0 21 14 -4 
17:34:15.255000 0 0 0 40 30 -7 24 -128 35 -4 10 -362 43 234 31 0 28 12 16 
17:34:15.255000 0 0 0 65 43 6 12 -141 22 -6 16 -363 28 234 21 0 41 33 7 
17:34:15.273000 0 0 0 21 19 -4 -8 -171 -8 -17 12 -379 7 234 1 0 41 32 -26 
17:34:15.274000 0 0 0 29 32 -3 -8 -178 -9 -5 5 -386 5 16 7 0 27 26 -19 
17:34:15.280000 0 0 0 8 9 -12 -6 -176 8 -2 7 -386 12 17 24 0 18 19 -8 
17:34:15.294000 0 0 0 0 11 1 -5 -166 8 -5 11 -371 15 18 23 0 19 12 -12 
17:34:15.294000 0 0 0 -33 -6 -7 -7 -157 -2 -17 10 -357 6 19 12 0 23 17 -30 
17:34:15.312000 0 0 0 -59 -17 -19 -13 -170 -8 -22 -1 -372 -6 20 -5 0 20 26 -39 
17:34:15.313000 0 0 0 -63 -16 -10 -11 -172 -2 -19 -7 -377 1 21 -9 0 19 25 -35 
17:34:15.319000 0 0 0 -68 -53 -13 1 -144 12 -20 4 -352 14 22 16 0 18 19 -29 
17:34:15.333000 0 0 0 -44 -50 -17 -11 -141 0 -21 0 -341 -5 23 13 0 12 13 -32 
17:34:15.334000 0 0 0 -65 -45 -17 -30 -151 -13 -24 -15 -356 -20 24 -11 0 9 19 -39 
17:34:15.352000 0 0 0 -11 0 3 -21 -147 -11 -18 -19 -352 -3 25 -19 0 12 39 -29 
17:34:15.353000 0 0 0 15 -3 0 1 -134 8 -18 5 -339 17 26 3 0 22 51 -18 
17:34:15.359000 0 0 0 42 28 23 -1 -139 6 -3 16 -340 21 27 13 0 35 46 -5 
