# H:M:S.f Gyro(x) Gyro(y) F3 FC5 AF3 F7 T7 P7 O1 O2 P8 T8 F8 AF4 FC6 F4
14:32:56.248939 2045 2037 2129.9589 2132.0397 2130.219 2132.0397 2130.7392 2128.9185 2129.4387 2131.7796 2134.3806 2135.6811 2131.7796 2129.1786 2157.7896 2513.6064 
14:32:56.250879 2044 2035 2130.9993 2133.3402 2131.7796 2131.7796 2131.2594 2136.2013 2129.4387 2131.5195 2133.0801 2136.9816 2132.0397 2131.7796 2158.3098 2513.6064 
14:32:56.252827 2044 2036 2128.9185 2134.6407 2134.1205 2133.6003 2133.3402 2138.022 2129.6988 2133.0801 2133.6003 2135.6811 2131.7796 2132.82 2157.7896 2510.4852 
14:32:56.254802 2047 2039 2130.7392 2132.0397 2133.3402 2131.2594 2130.4791 2129.9589 2126.8377 2133.0801 2133.8604 2134.9008 2132.82 2133.3402 2159.3502 2511.7857 
14:32:56.256808 2047 2039 2130.7392 2132.0397 2132.82 2129.9589 2130.219 2122.9362 2130.7392 2132.2998 2132.2998 2134.1205 2132.2998 2133.3402 2159.0901 2513.6064 
14:32:56.258669 2045 2039 2131.7796 2131.7796 2132.5599 2129.4387 2129.4387 2125.2771 2130.219 2133.0801 2132.2998 2133.8604 2132.82 2136.9816 2160.1305 2516.9877 
14:32:56.260664 2046 2039 2132.2998 2129.6988 2131.2594 2130.4791 2128.9185 2132.2998 2128.1382 2134.1205 2132.2998 2134.1205 2133.0801 2136.2013 2160.1305 2513.8665 
14:32:56.261699 2043 2037 2133.8604 2129.4387 2129.9589 2129.9589 2129.4387 2137.5018 2127.3579 2132.82 2131.7796 2134.3806 2133.8604 2134.9008 2159.8704 2515.9473 
14:32:56.262561 2044 2037 2134.3806 2132.5599 2130.219 2130.219 2130.9993 2140.3629 2130.9993 2132.5599 2132.2998 2134.9008 2133.6003 2136.7215 2160.1305 2518.8084 
14:32:56.263618 2045 2037 2132.82 2133.6003 2132.0397 2131.2594 2131.2594 2133.8604 2131.7796 2134.6407 2134.1205 2135.9412 2135.1609 2137.7619 2159.6103 2514.6468 
14:32:56.269595 2048 2039 2132.82 2132.82 2132.82 2129.6988 2130.9993 2124.4968 2128.9185 2132.5599 2133.6003 2135.9412 2135.1609 2136.2013 2159.8704 2514.3867 
14:32:56.277537 2046 2040 2130.4791 2132.0397 2132.2998 2130.9993 2132.82 2122.6761 2129.9589 2130.9993 2132.0397 2134.9008 2132.5599 2135.421 2160.9108 2513.6064 
14:32:56.285459 2045 2038 2130.219 2133.0801 2130.9993 2130.7392 2131.2594 2130.219 2129.9589 2132.0397 2130.9993 2134.9008 2129.9589 2134.1205 2161.431 2517.2478 
14:32:56.301451 2044 2035 2132.2998 2133.3402 2132.2998 2131.2594 2132.82 2136.9816 2128.6584 2131.5195 2133.0801 2135.1609 2129.6988 2130.7392 2160.1305 2518.0281 
14:32:56.308550 2045 2036 2131.2594 2132.82 2130.9993 2132.0397 2132.82 2132.2998 2129.4387 2132.5599 2131.7796 2134.6407 2130.7392 2131.5195 2159.8704 2513.6064 
14:32:56.316464 2047 2038 2131.5195 2133.0801 2130.4791 2129.6988 2128.3983 2125.7973 2127.0978 2132.5599 2133.3402 2135.6811 2132.2998 2134.3806 2160.1305 2514.9069 
14:32:56.324458 2046 2039 2130.4791 2133.3402 2132.0397 2130.9993 2131.2594 2123.1963 2129.1786 2133.6003 2135.1609 2135.9412 2131.2594 2134.1205 2158.0497 2510.7453 
14:32:56.332497 2045 2039 2134.1205 2133.3402 2129.9589 2131.2594 2132.2998 2129.1786 2126.8377 2132.82 2132.82 2135.6811 2133.0801 2136.2013 2159.8704 2514.3867 
14:32:56.340587 2044 2037 2130.9993 2133.0801 2129.9589 2133.3402 2132.0397 2135.421 2130.219 2130.9993 2132.5599 2136.2013 2134.6407 2135.9412 2159.0901 2511.5256 
14:32:56.348468 2043 2036 2129.9589 2132.0397 2130.4791 2130.4791 2129.6988 2136.7215 2130.219 2130.219 2133.3402 2136.2013 2134.1205 2137.7619 2159.6103 2517.5079 
14:32:56.356522 2045 2037 2129.9589 2132.2998 2131.2594 2129.4387 2131.5195 2134.6407 2134.6407 2132.2998 2132.2998 2134.9008 2133.0801 2135.6811 2159.8704 2516.7276 
14:32:56.364553 2044 2038 2133.8604 2130.9993 2132.0397 2129.4387 2130.9993 2129.6988 2134.3806 2133.0801 2133.0801 2134.6407 2134.6407 2137.7619 2162.7315 2516.9877 
14:32:56.371512 2047 2039 2132.5599 2130.9993 2132.2998 2131.7796 2131.7796 2126.0574 2133.3402 2132.0397 2134.9008 2134.9008 2134.9008 2138.2821 2161.431 2513.3463 
14:32:56.379483 2046 2039 2133.8604 2132.0397 2130.9993 2132.2998 2132.2998 2128.1382 2132.5599 2132.82 2133.8604 2135.1609 2136.2013 2139.0624 2161.9512 2516.7276 
14:32:56.387455 2044 2038 2133.3402 2130.9993 2130.7392 2131.7796 2132.5599 2134.3806 2134.1205 2133.6003 2132.0397 2135.421 2134.9008 2137.7619 2161.9512 2519.0685 
14:32:56.395538 2043 2037 2130.219 2130.7392 2132.0397 2131.5195 2132.0397 2135.6811 2129.4387 2132.2998 2132.2998 2135.6811 2132.82 2135.421 2159.6103 2517.768 
14:32:56.403505 2044 2038 2130.7392 2133.6003 2131.7796 2131.5195 2132.0397 2134.6407 2126.8377 2129.9589 2133.6003 2136.4614 2131.7796 2132.2998 2158.5699 2516.7276 
14:32:56.411463 2045 2037 2130.219 2133.8604 2131.5195 2132.5599 2132.0397 2129.6988 2130.7392 2130.9993 2134.3806 2136.2013 2130.7392 2131.7796 2158.83 2513.6064 
14:32:56.419453 2046 2038 2130.4791 2133.0801 2131.2594 2131.5195 2131.2594 2124.7569 2129.9589 2132.82 2132.2998 2134.6407 2127.8781 2131.2594 2158.83 2514.1266 
14:32:56.427832 2046 2040 2130.7392 2133.6003 2132.2998 2132.0397 2131.7796 2125.017 2129.4387 2133.0801 2131.7796 2134.3806 2130.219 2130.219 2157.5295 2510.7453 
14:32:56.435460 2046 2037 2133.0801 2133.0801 2131.5195 2130.4791 2129.6988 2128.9185 2127.3579 2131.5195 2133.0801 2135.9412 2132.5599 2133.3402 2159.3502 2514.9069 
14:32:56.442522 2044 2037 2130.7392 2132.5599 2131.2594 2131.7796 2129.6988 2133.3402 2128.6584 2131.5195 2133.8604 2135.421 2131.5195 2133.6003 2158.83 2512.566 
14:32:56.450450 2044 2038 2133.6003 2133.0801 2130.7392 2129.6988 2129.1786 2135.9412 2124.7569 2130.7392 2132.82 2134.9008 2133.0801 2132.82 2159.0901 2513.8665 
14:32:56.458847 2046 2038 2133.6003 2131.7796 2133.3402 2129.6988 2131.5195 2132.5599 2130.219 2130.4791 2132.5599 2135.1609 2134.9008 2135.1609 2159.0901 2511.5256 
14:32:56.466462 2046 2038 2133.6003 2131.2594 2132.82 2128.3983 2130.219 2126.8377 2130.219 2130.4791 2132.5599 2134.6407 2134.6407 2141.4033 2161.6911 2516.7276 
14:32:56.474454 2047 2040 2131.2594 2132.82 2130.219 2132.5599 2131.5195 2126.8377 2131.5195 2132.5599 2133.8604 2134.1205 2135.1609 2139.0624 2161.1709 2512.3059 
14:32:56.482452 2044 2037 2133.3402 2131.5195 2129.1786 2132.2998 2131.2594 2131.7796 2130.7392 2131.2594 2134.1205 2134.6407 2135.6811 2137.5018 2161.9512 2516.4675 
14:32:56.490561 2044 2038 2132.0397 2130.9993 2132.0397 2132.82 2133.3402 2135.9412 2135.1609 2129.9589 2133.8604 2134.3806 2133.3402 2137.2417 2162.2113 2517.2478 
14:32:56.498464 2043 2038 2133.6003 2131.5195 2131.7796 2131.2594 2132.0397 2137.5018 2133.6003 2131.2594 2133.8604 2135.421 2134.6407 2138.022 2161.9512 2520.8892 
14:32:56.505502 2045 2037 2132.0397 2134.1205 2130.9993 2132.0397 2131.7796 2135.1609 2133.8604 2132.2998 2132.5599 2136.2013 2133.6003 2133.3402 2159.0901 2518.5483 
14:32:56.513468 2047 2039 2132.0397 2134.6407 2131.5195 2130.4791 2131.7796 2129.1786 2129.1786 2131.7796 2132.82 2135.1609 2129.6988 2133.6003 2160.1305 2520.1089 
14:32:56.521523 2045 2038 2131.7796 2133.8604 2132.2998 2130.4791 2132.2998 2125.7973 2128.6584 2132.0397 2134.6407 2135.1609 2128.6584 2132.82 2160.3906 2517.2478 
14:32:56.529470 2045 2037 2132.0397 2133.3402 2132.2998 2132.0397 2130.4791 2127.8781 2128.9185 2132.2998 2134.1205 2136.4614 2131.7796 2132.82 2159.6103 2518.0281 
14:32:56.537450 2044 2037 2131.2594 2134.1205 2131.2594 2132.0397 2130.9993 2133.6003 2128.9185 2132.0397 2132.5599 2135.6811 2132.2998 2132.0397 2158.83 2518.0281 
14:32:56.545452 2043 2038 2130.219 2132.5599 2131.7796 2130.7392 2131.5195 2133.8604 2127.618 2131.7796 2133.3402 2134.9008 2131.5195 2132.5599 2158.83 2512.3059 
14:32:56.553524 2044 2036 2130.7392 2132.5599 2132.5599 2130.7392 2129.6988 2130.219 2127.3579 2130.219 2132.82 2134.9008 2130.219 2133.0801 2159.3502 2511.7857 
14:32:56.561468 2046 2039 2130.4791 2133.6003 2132.2998 2132.82 2128.3983 2127.0978 2129.4387 2130.219 2133.0801 2134.9008 2130.9993 2132.82 2158.83 2511.0054 
14:32:56.569450 2045 2038 2132.0397 2132.2998 2130.4791 2131.7796 2128.9185 2127.0978 2130.4791 2130.9993 2133.8604 2135.1609 2132.0397 2132.82 2158.5699 2512.0458 
14:32:56.576475 2044 2039 2131.7796 2132.0397 2132.0397 2132.0397 2131.5195 2128.9185 2133.6003 2132.0397 2133.0801 2135.1609 2132.5599 2134.9008 2158.5699 2512.0458 
14:32:56.584539 2044 2038 2135.1609 2131.7796 2130.9993 2129.9589 2129.6988 2133.3402 2128.9185 2130.7392 2130.9993 2134.6407 2134.1205 2139.3225 2161.1709 2518.2882 
14:32:56.592475 2045 2037 2133.6003 2130.4791 2129.6988 2130.7392 2130.4791 2136.2013 2130.219 2130.219 2133.0801 2134.6407 2135.6811 2138.8023 2160.9108 2514.6468 
14:32:56.600487 2045 2039 2133.0801 2129.9589 2129.4387 2129.4387 2130.7392 2133.8604 2130.9993 2130.9993 2134.6407 2135.1609 2135.1609 2139.0624 2161.6911 2519.3286 
14:32:56.608511 2045 2038 2131.7796 2130.9993 2131.2594 2131.2594 2133.0801 2129.6988 2133.3402 2133.3402 2133.8604 2134.6407 2133.3402 2138.2821 2161.1709 2518.5483 
14:32:56.616520 2046 2038 2134.6407 2131.7796 2130.4791 2130.7392 2130.7392 2129.1786 2130.219 2132.0397 2133.3402 2135.1609 2134.6407 2138.2821 2161.431 2520.369 
14:32:56.624503 2044 2039 2130.9993 2133.8604 2131.7796 2133.3402 2132.5599 2130.219 2133.0801 2130.4791 2134.9008 2135.1609 2131.5195 2133.0801 2160.1305 2516.2074 
14:32:56.632458 2042 2038 2130.4791 2133.6003 2132.0397 2132.5599 2133.6003 2132.2998 2130.7392 2132.0397 2135.6811 2134.6407 2128.6584 2132.0397 2161.6911 2519.3286 
14:32:56.639487 2045 2038 2129.1786 2133.6003 2130.9993 2133.6003 2133.6003 2133.6003 2131.2594 2134.3806 2134.3806 2134.6407 2129.6988 2130.4791 2158.3098 2514.9069 
14:32:56.647539 2045 2040 2130.7392 2135.1609 2130.219 2132.2998 2130.219 2129.6988 2127.8781 2131.5195 2132.2998 2135.1609 2132.2998 2131.5195 2157.2694 2517.2478 
14:32:56.655464 2046 2038 2130.9993 2135.1609 2131.5195 2132.5599 2130.4791 2125.2771 2127.618 2129.4387 2132.5599 2135.6811 2131.2594 2131.5195 2159.0901 2515.9473 
14:32:56.663467 2046 2038 2132.2998 2133.6003 2132.0397 2131.7796 2130.4791 2126.0574 2127.618 2131.5195 2133.6003 2135.421 2130.9993 2133.6003 2160.1305 2514.6468 
14:32:56.671460 2044 2038 2131.2594 2133.8604 2132.0397 2130.219 2130.4791 2129.6988 2129.4387 2132.0397 2132.2998 2134.3806 2131.2594 2133.8604 2158.0497 2512.566 
14:32:56.679540 2044 2037 2132.2998 2132.5599 2132.5599 2129.4387 2129.4387 2132.2998 2128.1382 2130.9993 2133.0801 2135.1609 2133.0801 2135.421 2158.0497 2512.8261 
14:32:56.687467 2045 2038 2133.3402 2132.2998 2132.5599 2130.4791 2129.9589 2133.6003 2128.6584 2132.0397 2135.1609 2136.2013 2133.3402 2135.1609 2159.6103 2512.8261 
14:32:56.695465 2048 2040 2130.7392 2132.2998 2132.5599 2130.7392 2131.2594 2129.6988 2131.5195 2134.1205 2134.3806 2134.6407 2133.0801 2135.6811 2160.3906 2511.7857 
14:32:56.702445 2045 2040 2130.9993 2130.9993 2131.7796 2129.1786 2131.5195 2126.8377 2130.9993 2132.82 2132.5599 2134.6407 2133.8604 2136.7215 2161.6911 2514.1266 
14:32:56.710541 2045 2037 2131.2594 2130.7392 2131.5195 2131.5195 2132.2998 2129.9589 2132.0397 2131.5195 2133.6003 2136.7215 2134.9008 2135.9412 2161.6911 2515.167 
14:32:56.718472 2044 2037 2132.5599 2132.5599 2130.219 2131.2594 2131.2594 2136.2013 2130.9993 2130.9993 2133.3402 2135.9412 2133.8604 2136.7215 2162.4714 2521.6695 
14:32:56.726463 2044 2036 2130.9993 2134.3806 2131.2594 2132.82 2131.2594 2137.5018 2131.7796 2132.5599 2133.6003 2134.6407 2133.6003 2139.3225 2162.2113 2518.8084 
14:32:56.734532 2047 2037 2133.6003 2133.3402 2131.7796 2131.2594 2130.7392 2133.3402 2129.1786 2131.2594 2135.1609 2135.421 2133.8604 2138.8023 2161.9512 2519.8488 
14:32:56.742514 2046 2040 2132.82 2130.7392 2132.2998 2131.2594 2132.5599 2127.3579 2130.219 2131.2594 2135.9412 2135.421 2131.2594 2134.1205 2160.3906 2518.2882 
14:32:56.750454 2047 2039 2133.3402 2130.219 2130.9993 2128.9185 2130.4791 2125.7973 2128.3983 2132.2998 2134.9008 2135.421 2130.219 2136.9816 2161.9512 2521.9296 
14:32:56.758466 2046 2039 2129.6988 2133.6003 2132.2998 2132.2998 2131.2594 2128.3983 2131.7796 2131.5195 2134.3806 2135.421 2129.9589 2135.421 2160.3906 2515.6872 
14:32:56.765502 2043 2037 2129.6988 2134.6407 2132.0397 2132.0397 2130.9993 2133.0801 2128.9185 2129.1786 2133.0801 2135.1609 2131.7796 2131.5195 2159.0901 2517.5079 
14:32:56.773572 2043 2037 2129.9589 2133.3402 2131.5195 2132.5599 2132.0397 2135.421 2129.4387 2132.2998 2132.82 2135.421 2132.5599 2128.9185 2157.5295 2513.0862 
14:32:56.781479 2043 2037 2132.2998 2133.0801 2132.2998 2130.4791 2130.4791 2132.2998 2128.3983 2133.8604 2133.6003 2135.9412 2131.7796 2132.2998 2159.0901 2513.6064 
14:32:56.789467 2045 2037 2130.219 2133.6003 2132.5599 2130.4791 2131.2594 2126.8377 2130.7392 2131.5195 2132.5599 2135.421 2130.4791 2131.5195 2157.7896 2512.3059 
14:32:56.797519 2046 2040 2131.7796 2132.0397 2130.4791 2130.4791 2129.9589 2124.7569 2126.5776 2132.2998 2130.4791 2135.1609 2132.82 2132.5599 2157.7896 2514.1266 
14:32:56.805512 2045 2039 2133.0801 2130.7392 2131.2594 2130.7392 2130.219 2129.1786 2126.8377 2134.3806 2131.7796 2135.421 2133.6003 2133.6003 2159.0901 2513.0862 
14:32:56.812496 2043 2038 2134.1205 2130.7392 2132.0397 2129.6988 2130.4791 2134.6407 2129.1786 2133.3402 2133.6003 2135.421 2134.1205 2138.2821 2162.4714 2517.5079 
14:32:56.821448 2043 2038 2133.3402 2131.5195 2130.9993 2130.4791 2132.5599 2137.2417 2130.219 2132.0397 2133.0801 2134.6407 2135.421 2139.3225 2162.4714 2517.768 
14:32:56.828543 2044 2038 2133.0801 2130.219 2131.2594 2132.0397 2132.5599 2134.6407 2129.6988 2132.2998 2133.0801 2134.6407 2135.9412 2137.5018 2160.6507 2516.4675 
14:32:56.836512 2045 2039 2133.0801 2131.2594 2132.5599 2131.2594 2131.2594 2128.9185 2130.7392 2131.2594 2132.82 2135.1609 2133.3402 2136.2013 2159.6103 2518.2882 
14:32:56.844473 2046 2039 2131.5195 2133.8604 2132.82 2132.5599 2132.5599 2125.7973 2133.0801 2131.5195 2133.3402 2135.1609 2133.6003 2137.5018 2159.8704 2516.7276 
14:32:56.852470 2044 2038 2132.82 2134.3806 2130.9993 2133.0801 2133.0801 2130.7392 2131.5195 2132.0397 2133.8604 2134.9008 2134.3806 2136.7215 2160.6507 2518.8084 
14:32:56.860877 2043 2036 2131.2594 2134.1205 2131.5195 2134.3806 2134.1205 2136.2013 2132.5599 2131.7796 2133.6003 2135.1609 2131.2594 2133.0801 2159.6103 2518.0281 
14:32:56.868486 2043 2037 2131.7796 2134.3806 2131.7796 2130.9993 2132.2998 2136.9816 2130.7392 2130.4791 2131.7796 2135.1609 2130.219 2133.8604 2160.6507 2520.6291 
14:32:56.876484 2047 2039 2130.4791 2133.3402 2132.5599 2131.5195 2131.2594 2131.5195 2131.2594 2131.5195 2132.2998 2134.9008 2131.7796 2133.3402 2159.6103 2515.6872 
14:32:56.884472 2047 2040 2131.7796 2133.0801 2130.9993 2131.2594 2131.2594 2125.5372 2127.3579 2130.9993 2131.5195 2135.9412 2132.0397 2132.82 2160.1305 2516.9877 
14:32:56.892538 2046 2039 2129.9589 2133.8604 2132.5599 2131.7796 2132.5599 2123.7165 2126.5776 2130.7392 2130.9993 2135.9412 2131.2594 2130.7392 2158.3098 2511.7857 
14:32:56.899467 2046 2039 2131.7796 2133.0801 2133.0801 2129.6988 2128.9185 2128.3983 2124.2367 2131.2594 2132.2998 2135.6811 2131.5195 2133.6003 2158.5699 2515.6872 
14:32:56.907480 2043 2039 2129.6988 2132.82 2132.2998 2133.3402 2130.9993 2133.8604 2127.8781 2133.3402 2133.0801 2135.421 2131.2594 2134.6407 2158.3098 2512.3059 
14:32:56.915476 2044 2038 2130.7392 2132.5599 2130.7392 2132.5599 2133.0801 2135.1609 2125.5372 2133.3402 2131.7796 2134.9008 2133.0801 2135.421 2159.6103 2512.566 
14:32:56.923550 2044 2039 2131.5195 2132.5599 2132.0397 2130.9993 2132.82 2133.0801 2129.9589 2133.0801 2132.0397 2134.1205 2132.2998 2133.3402 2158.3098 2511.0054 
14:32:56.931478 2047 2039 2134.9008 2131.7796 2131.7796 2128.6584 2129.4387 2128.9185 2131.5195 2132.2998 2133.6003 2134.3806 2132.82 2136.4614 2159.0901 2516.2074 
14:32:56.939474 2045 2038 2133.8604 2131.2594 2130.7392 2129.6988 2131.2594 2128.6584 2131.7796 2132.5599 2133.6003 2134.6407 2135.1609 2139.0624 2160.1305 2514.9069 
14:32:56.947468 2044 2037 2133.6003 2130.7392 2129.9589 2129.4387 2132.5599 2132.2998 2129.9589 2133.0801 2133.0801 2135.421 2135.6811 2139.5826 2161.1709 2518.2882 
14:32:56.955525 2045 2038 2132.82 2132.0397 2130.4791 2130.219 2133.8604 2135.6811 2131.7796 2133.0801 2132.5599 2135.421 2133.0801 2137.2417 2161.431 2520.369 
14:32:56.962476 2046 2038 2133.3402 2132.82 2131.5195 2129.9589 2132.2998 2136.2013 2130.4791 2132.2998 2132.5599 2134.3806 2134.6407 2139.8427 2163.5118 2521.4094 
14:32:56.970467 2044 2036 2132.82 2132.5599 2131.5195 2129.9589 2129.9589 2134.1205 2130.219 2131.5195 2133.6003 2134.6407 2133.3402 2138.8023 2162.7315 2520.1089 
14:32:56.978479 2043 2036 2130.4791 2132.0397 2131.2594 2132.5599 2130.219 2130.219 2131.5195 2132.0397 2134.9008 2136.2013 2128.6584 2135.1609 2160.9108 2519.3286 
14:32:56.986529 2046 2038 2131.2594 2133.3402 2131.2594 2132.82 2131.7796 2128.3983 2130.219 2132.0397 2133.8604 2136.7215 2128.1382 2133.3402 2160.9108 2518.2882 
14:32:56.994472 2046 2038 2130.4791 2134.1205 2132.0397 2132.82 2132.0397 2128.3983 2129.9589 2132.0397 2133.0801 2136.2013 2130.4791 2131.7796 2159.6103 2512.3059 
14:32:57.002469 2045 2039 2129.9589 2133.8604 2131.5195 2131.5195 2130.9993 2130.219 2127.3579 2131.5195 2133.8604 2135.6811 2130.219 2130.219 2158.83 2514.1266 
14:32:57.010474 2045 2038 2128.6584 2133.6003 2132.2998 2132.82 2132.0397 2129.6988 2126.8377 2132.2998 2133.0801 2134.9008 2130.9993 2130.7392 2158.0497 2512.0458 
14:32:57.018534 2044 2038 2132.0397 2132.82 2131.7796 2131.7796 2129.9589 2128.6584 2124.7569 2130.7392 2131.2594 2134.6407 2133.0801 2132.0397 2159.0901 2514.9069 
14:32:57.026476 2044 2037 2130.7392 2131.5195 2132.82 2132.82 2128.9185 2129.4387 2128.6584 2131.5195 2133.3402 2135.1609 2133.3402 2132.0397 2158.5699 2513.0862 
14:32:57.033463 2043 2037 2131.2594 2130.219 2132.2998 2129.4387 2128.6584 2130.9993 2127.0978 2133.6003 2135.421 2135.421 2133.3402 2136.2013 2159.3502 2516.9877 
14:32:57.041465 2046 2038 2130.219 2131.5195 2132.2998 2129.9589 2131.2594 2130.219 2131.2594 2134.3806 2134.6407 2135.1609 2133.0801 2134.9008 2158.3098 2512.566 
14:32:57.049526 2046 2039 2133.0801 2131.5195 2130.7392 2129.9589 2129.9589 2129.9589 2130.219 2131.5195 2131.7796 2135.1609 2133.8604 2136.7215 2160.6507 2515.4271 
14:32:57.057515 2046 2038 2132.2998 2130.7392 2131.2594 2132.0397 2131.2594 2131.5195 2132.2998 2130.7392 2132.5599 2135.1609 2134.6407 2137.7619 2160.6507 2513.0862 
14:32:57.065470 2045 2038 2133.0801 2129.9589 2131.5195 2130.4791 2130.7392 2133.8604 2130.4791 2131.5195 2134.1205 2135.1609 2135.421 2136.2013 2160.9108 2517.2478 
14:32:57.073462 2044 2037 2130.9993 2130.9993 2131.5195 2132.0397 2132.82 2136.2013 2132.82 2132.2998 2133.8604 2135.421 2134.1205 2133.8604 2160.3906 2516.9877 
14:32:57.081536 2044 2037 2131.7796 2132.0397 2130.9993 2131.2594 2133.3402 2135.1609 2132.0397 2130.7392 2133.0801 2136.2013 2134.9008 2138.2821 2161.1709 2519.8488 
14:32:57.089489 2047 2039 2132.2998 2133.8604 2131.7796 2131.7796 2133.3402 2130.219 2132.5599 2129.6988 2133.3402 2136.2013 2132.82 2136.2013 2158.83 2518.8084 
14:32:57.096491 2046 2038 2133.3402 2135.1609 2131.7796 2131.7796 2130.9993 2127.618 2129.6988 2129.6988 2134.1205 2135.1609 2130.9993 2134.3806 2159.3502 2521.1493 
14:32:57.104476 2045 2037 2132.0397 2134.3806 2130.9993 2131.5195 2131.5195 2128.6584 2129.4387 2129.4387 2134.1205 2134.6407 2131.5195 2134.6407 2160.1305 2518.2882 
14:32:57.112544 2045 2038 2131.7796 2132.0397 2131.7796 2131.5195 2132.0397 2129.1786 2128.6584 2131.5195 2134.1205 2135.1609 2133.0801 2132.5599 2158.83 2515.6872 
14:32:57.120467 2044 2037 2132.2998 2133.0801 2132.0397 2132.5599 2132.0397 2131.5195 2127.3579 2134.3806 2132.5599 2134.6407 2131.2594 2129.4387 2158.0497 2516.7276 
14:32:57.128478 2045 2037 2130.7392 2133.3402 2132.0397 2132.82 2131.7796 2132.2998 2128.1382 2132.5599 2132.5599 2134.1205 2129.9589 2130.7392 2158.0497 2512.0458 
14:32:57.136512 2045 2037 2131.2594 2131.2594 2132.5599 2129.9589 2130.7392 2128.9185 2128.1382 2128.9185 2134.1205 2134.1205 2130.9993 2132.5599 2158.3098 2511.0054 
14:32:57.144547 2047 2041 2132.0397 2130.219 2132.5599 2130.7392 2129.9589 2126.5776 2129.9589 2132.0397 2134.1205 2134.9008 2133.3402 2131.5195 2158.83 2511.7857 
14:32:57.152479 2045 2040 2133.8604 2130.7392 2130.7392 2129.9589 2129.4387 2129.4387 2129.4387 2133.3402 2132.2998 2135.1609 2134.3806 2132.2998 2159.3502 2514.9069 
14:32:57.159447 2044 2039 2130.9993 2130.7392 2131.7796 2130.7392 2131.7796 2131.5195 2132.2998 2130.4791 2131.5195 2134.3806 2134.6407 2135.1609 2158.5699 2512.3059 
14:32:57.167503 2045 2038 2132.0397 2130.4791 2132.0397 2129.1786 2131.5195 2133.8604 2129.9589 2128.1382 2133.0801 2134.9008 2134.9008 2139.5826 2160.9108 2518.5483 
14:32:57.175517 2045 2037 2132.2998 2129.6988 2131.5195 2130.4791 2132.0397 2136.2013 2132.0397 2131.5195 2134.3806 2136.7215 2135.1609 2139.8427 2160.9108 2515.9473 
14:32:57.183463 2046 2038 2134.3806 2128.1382 2130.4791 2128.6584 2130.219 2132.2998 2129.9589 2133.0801 2132.82 2135.421 2135.421 2139.0624 2161.431 2518.5483 
14:32:57.191452 2047 2038 2132.0397 2129.6988 2132.0397 2131.2594 2132.5599 2126.5776 2133.6003 2132.5599 2131.5195 2135.421 2132.82 2135.9412 2161.431 2516.9877 
14:32:57.199550 2047 2039 2133.6003 2132.2998 2132.2998 2130.9993 2132.0397 2128.9185 2133.6003 2130.7392 2132.2998 2139.0624 2133.0801 2137.5018 2163.2517 2520.6291 
14:32:57.207499 2045 2037 2131.5195 2133.3402 2133.0801 2132.82 2132.82 2133.0801 2134.3806 2130.9993 2132.82 2138.022 2132.2998 2133.8604 2159.8704 2517.2478 
14:32:57.215460 2045 2038 2130.7392 2133.6003 2131.5195 2132.5599 2132.82 2133.0801 2129.6988 2131.5195 2133.0801 2134.3806 2130.4791 2132.82 2159.6103 2519.3286 
14:32:57.223478 2044 2038 2129.4387 2134.3806 2130.7392 2133.0801 2133.6003 2131.7796 2130.4791 2132.0397 2133.3402 2134.6407 2128.9185 2132.82 2159.0901 2514.6468 
14:32:57.230532 2044 2037 2129.9589 2134.1205 2130.9993 2130.9993 2129.9589 2129.1786 2128.6584 2132.5599 2132.2998 2135.6811 2129.1786 2132.82 2158.5699 2514.6468 
14:32:57.238491 2045 2038 2129.4387 2134.3806 2131.2594 2130.7392 2129.9589 2126.5776 2126.5776 2132.5599 2131.2594 2134.9008 2129.1786 2129.9589 2157.5295 2515.6872 
14:32:57.246463 2044 2039 2131.5195 2132.5599 2130.9993 2130.7392 2131.2594 2126.8377 2125.2771 2132.2998 2132.0397 2135.6811 2131.5195 2132.0397 2158.83 2516.4675 
14:32:57.254447 2044 2038 2131.5195 2131.7796 2132.0397 2130.9993 2130.7392 2128.9185 2128.9185 2131.7796 2132.5599 2135.421 2132.2998 2133.3402 2159.6103 2514.9069 
14:32:57.262798 2043 2038 2130.219 2130.9993 2133.3402 2130.9993 2129.4387 2127.8781 2129.4387 2132.2998 2132.82 2133.8604 2132.2998 2133.3402 2158.3098 2512.3059 
14:32:57.270472 2044 2037 2132.2998 2130.4791 2132.0397 2129.1786 2129.9589 2130.219 2127.8781 2131.7796 2132.5599 2134.1205 2133.0801 2133.6003 2158.3098 2513.3463 
14:32:57.278464 2045 2038 2132.0397 2131.5195 2131.7796 2129.9589 2131.2594 2134.1205 2131.5195 2131.7796 2132.82 2134.9008 2133.8604 2135.421 2159.6103 2513.8665 
14:32:57.286451 2046 2038 2132.5599 2132.2998 2130.4791 2129.9589 2130.4791 2133.0801 2132.5599 2132.0397 2132.5599 2135.421 2133.8604 2136.9816 2160.6507 2515.9473 
14:32:57.293747 2045 2039 2132.2998 2131.2594 2130.7392 2130.4791 2131.5195 2127.8781 2133.3402 2133.3402 2133.8604 2135.9412 2135.6811 2136.4614 2160.6507 2515.4271 
14:32:57.301473 2045 2038 2134.3806 2131.2594 2131.5195 2127.8781 2131.5195 2127.618 2130.4791 2132.0397 2134.3806 2135.9412 2134.6407 2137.5018 2163.7719 2522.4498 
14:32:57.317456 2047 2038 2135.6811 2133.8604 2130.4791 2129.6988 2130.9993 2135.9412 2130.219 2131.5195 2132.5599 2136.2013 2133.8604 2139.5826 2161.431 2521.1493 
14:32:57.325526 2046 2037 2132.82 2133.3402 2131.5195 2133.8604 2132.2998 2131.7796 2132.5599 2133.3402 2132.5599 2136.4614 2132.0397 2134.6407 2159.8704 2517.2478 
14:32:57.333463 2045 2037 2131.2594 2133.3402 2133.0801 2132.2998 2131.2594 2128.1382 2129.4387 2132.82 2132.82 2135.421 2130.7392 2136.2013 2162.4714 2520.8892 
14:32:57.341460 2044 2038 2128.9185 2133.8604 2133.0801 2131.2594 2133.0801 2130.9993 2130.7392 2132.82 2132.5599 2134.6407 2130.7392 2133.0801 2158.3098 2513.6064 
14:32:57.349446 2045 2039 2130.219 2133.3402 2131.5195 2130.9993 2132.0397 2132.82 2127.618 2131.2594 2132.82 2135.1609 2130.9993 2131.2594 2157.2694 2513.0862 
14:32:57.356559 2047 2038 2128.3983 2133.0801 2132.0397 2133.6003 2132.0397 2129.4387 2128.1382 2131.5195 2133.6003 2135.9412 2130.219 2130.4791 2158.5699 2511.2655 
14:32:57.364479 2047 2039 2130.9993 2133.6003 2131.7796 2130.7392 2130.4791 2128.3983 2126.0574 2131.2594 2133.6003 2135.9412 2131.2594 2132.5599 2159.6103 2514.1266 
14:32:57.372497 2047 2037 2131.2594 2133.3402 2131.2594 2130.9993 2130.7392 2129.4387 2128.1382 2130.219 2133.0801 2135.1609 2131.5195 2132.82 2157.7896 2512.566 
14:32:57.380464 2042 2036 2131.7796 2130.219 2130.7392 2130.9993 2129.4387 2129.1786 2127.618 2130.4791 2132.0397 2134.6407 2133.6003 2135.421 2159.8704 2514.6468 
14:32:57.388536 2042 2037 2132.0397 2130.219 2131.5195 2130.4791 2130.9993 2132.5599 2130.219 2132.0397 2131.7796 2134.9008 2134.3806 2135.1609 2160.6507 2513.8665 
14:32:57.396479 2045 2038 2133.3402 2131.7796 2132.2998 2130.9993 2131.2594 2135.421 2130.7392 2130.9993 2133.6003 2135.421 2134.6407 2138.5422 2160.9108 2513.3463 
14:32:57.404458 2046 2039 2133.0801 2130.7392 2132.0397 2129.9589 2131.5195 2132.82 2129.9589 2130.4791 2133.0801 2135.1609 2134.9008 2141.1432 2162.4714 2513.8665 
14:32:57.412455 2047 2039 2131.7796 2129.6988 2132.82 2129.1786 2132.2998 2127.0978 2131.2594 2132.82 2133.0801 2134.9008 2135.421 2138.5422 2162.4714 2515.9473 
14:32:57.420523 2046 2039 2133.0801 2131.5195 2133.3402 2129.4387 2130.9993 2127.3579 2130.9993 2133.3402 2134.3806 2135.9412 2134.3806 2135.9412 2161.9512 2520.369 
14:32:57.427469 2044 2037 2133.3402 2132.0397 2132.82 2131.5195 2130.7392 2133.6003 2132.2998 2132.82 2135.1609 2135.6811 2134.3806 2136.9816 2161.6911 2516.9877 
14:32:57.435454 2043 2036 2134.1205 2133.0801 2131.5195 2130.7392 2131.7796 2139.3225 2131.2594 2131.2594 2134.1205 2135.421 2132.82 2135.9412 2160.6507 2518.2882 
14:32:57.443445 2044 2037 2130.9993 2135.1609 2133.8604 2133.6003 2132.82 2135.9412 2130.7392 2131.2594 2133.8604 2135.6811 2128.9185 2131.5195 2158.5699 2519.3286 
14:32:57.451495 2048 2039 2131.7796 2133.0801 2132.82 2131.2594 2130.9993 2128.6584 2127.0978 2130.7392 2132.5599 2134.6407 2129.1786 2132.82 2161.1709 2520.6291 
14:32:57.459463 2047 2039 2130.7392 2131.2594 2130.4791 2130.9993 2131.5195 2123.4564 2129.1786 2130.4791 2132.0397 2133.6003 2130.4791 2133.3402 2159.8704 2511.5256 
14:32:57.467448 2045 2039 2132.0397 2132.5599 2129.9589 2130.9993 2130.219 2124.4968 2127.0978 2130.4791 2133.0801 2135.6811 2129.6988 2133.0801 2158.83 2516.7276 
14:32:57.475448 2043 2037 2129.4387 2132.5599 2132.5599 2133.3402 2130.7392 2129.6988 2127.8781 2132.82 2133.0801 2137.2417 2129.6988 2130.219 2157.2694 2515.167 
14:32:57.483519 2042 2037 2131.5195 2130.7392 2132.2998 2130.9993 2128.3983 2134.6407 2125.2771 2130.9993 2131.7796 2135.9412 2131.5195 2132.2998 2158.83 2514.3867 
14:32:57.490495 2045 2038 2129.9589 2132.0397 2132.82 2131.5195 2129.6988 2134.1205 2128.6584 2129.6988 2132.0397 2134.3806 2130.9993 2133.0801 2158.83 2509.7049 
14:32:57.498462 2044 2039 2130.4791 2131.7796 2133.0801 2130.219 2130.219 2127.618 2129.4387 2131.7796 2132.0397 2134.3806 2132.2998 2134.6407 2159.8704 2511.7857 
14:32:57.506570 2046 2039 2129.6988 2130.9993 2132.5599 2130.9993 2131.2594 2123.1963 2133.0801 2132.82 2133.0801 2134.3806 2132.82 2133.8604 2158.3098 2510.4852 
14:32:57.514519 2044 2037 2132.82 2130.4791 2132.0397 2130.7392 2129.6988 2126.0574 2129.9589 2131.5195 2134.3806 2134.6407 2133.6003 2137.2417 2159.8704 2515.167 
14:32:57.522480 2043 2038 2133.0801 2129.4387 2133.8604 2131.5195 2131.2594 2134.3806 2130.4791 2130.9993 2133.6003 2134.9008 2134.9008 2138.5422 2161.6911 2515.167 
14:32:57.530459 2042 2038 2133.6003 2128.6584 2134.1205 2131.5195 2131.7796 2140.3629 2131.7796 2130.9993 2132.0397 2135.421 2135.9412 2139.0624 2161.9512 2518.0281 
14:32:57.538630 2045 2038 2133.0801 2132.0397 2132.2998 2131.5195 2132.0397 2138.022 2131.5195 2131.5195 2133.3402 2134.9008 2133.8604 2138.2821 2161.431 2520.8892 
14:32:57.546501 2046 2039 2132.5599 2133.0801 2131.2594 2131.2594 2132.5599 2128.3983 2130.4791 2132.0397 2135.1609 2134.3806 2135.6811 2138.5422 2161.9512 2519.5887 
14:32:57.554459 2047 2039 2133.3402 2131.5195 2130.9993 2130.9993 2132.82 2123.7165 2132.2998 2130.4791 2134.3806 2135.6811 2134.9008 2135.6811 2161.6911 2516.9877 
14:32:57.561456 2047 2038 2131.5195 2131.7796 2132.2998 2132.0397 2132.82 2127.618 2132.5599 2130.7392 2133.3402 2136.4614 2129.9589 2134.1205 2160.9108 2514.9069 
14:32:57.569515 2043 2038 2131.2594 2134.1205 2131.5195 2130.7392 2132.0397 2135.1609 2128.9185 2131.7796 2132.82 2134.9008 2129.1786 2134.1205 2159.8704 2515.4271 
14:32:57.577509 2043 2037 2130.7392 2134.3806 2131.7796 2131.5195 2131.7796 2136.7215 2130.4791 2131.2594 2132.82 2134.3806 2129.9589 2130.9993 2157.7896 2512.566 
14:32:57.585462 2045 2039 2132.82 2132.82 2131.7796 2130.4791 2130.4791 2131.5195 2127.618 2129.4387 2132.82 2135.6811 2128.6584 2130.9993 2159.0901 2517.2478 
14:32:57.593460 2045 2039 2129.4387 2132.82 2132.82 2130.9993 2131.2594 2125.2771 2126.3175 2132.2998 2133.3402 2135.6811 2129.9589 2132.82 2159.0901 2514.1266 
14:32:57.601479 2044 2041 2130.7392 2133.0801 2131.2594 2129.9589 2128.6584 2124.7569 2125.7973 2133.8604 2133.3402 2134.6407 2132.0397 2133.6003 2158.3098 2515.4271 
14:32:57.609494 2044 2040 2131.2594 2131.5195 2131.5195 2132.2998 2128.3983 2127.0978 2129.6988 2133.0801 2133.8604 2133.8604 2130.7392 2132.82 2157.0093 2511.7857 
14:32:57.617469 2044 2039 2133.0801 2129.1786 2131.7796 2130.219 2128.9185 2130.7392 2126.0574 2132.2998 2133.0801 2134.9008 2133.0801 2135.9412 2158.83 2514.6468 
14:32:57.624472 2045 2038 2130.9993 2130.219 2132.2998 2131.5195 2131.7796 2134.3806 2129.4387 2133.3402 2132.2998 2135.1609 2135.9412 2134.9008 2159.3502 2510.7453 
14:32:57.632518 2045 2039 2133.0801 2131.2594 2130.7392 2130.9993 2130.4791 2134.1205 2130.7392 2132.0397 2132.0397 2134.1205 2134.9008 2137.2417 2161.6911 2515.4271 
14:32:57.640513 2047 2041 2132.0397 2130.4791 2130.9993 2131.2594 2131.7796 2130.219 2133.6003 2132.5599 2132.5599 2133.6003 2132.82 2137.7619 2159.0901 2514.9069 
14:32:57.648465 2046 2040 2132.82 2130.9993 2131.5195 2128.6584 2131.5195 2126.8377 2130.9993 2133.0801 2132.82 2134.6407 2134.6407 2138.022 2159.3502 2519.5887 
14:32:57.656455 2047 2039 2132.0397 2133.6003 2131.2594 2129.9589 2132.2998 2128.3983 2132.0397 2131.2594 2132.5599 2135.1609 2134.3806 2136.7215 2161.9512 2519.8488 
14:32:57.664763 2046 2040 2132.5599 2133.3402 2130.9993 2130.4791 2133.3402 2134.6407 2131.7796 2131.7796 2132.5599 2135.9412 2134.1205 2138.8023 2163.5118 2520.8892 
14:32:57.672478 2046 2039 2132.0397 2133.0801 2131.2594 2130.9993 2134.1205 2137.7619 2132.5599 2133.0801 2133.6003 2135.6811 2131.2594 2135.421 2160.1305 2518.5483 
14:32:57.680472 2045 2039 2132.5599 2133.0801 2130.9993 2130.7392 2132.0397 2132.2998 2129.9589 2132.0397 2134.3806 2134.3806 2130.219 2134.1205 2160.1305 2520.8892 
14:32:57.687454 2047 2038 2131.5195 2133.0801 2130.7392 2130.9993 2130.9993 2127.8781 2128.3983 2132.0397 2134.3806 2135.421 2131.2594 2134.3806 2161.431 2520.1089 
14:32:57.695763 2046 2039 2130.9993 2133.3402 2132.0397 2131.7796 2130.9993 2126.3175 2128.3983 2133.0801 2133.6003 2135.9412 2130.7392 2131.7796 2159.8704 2515.6872 
14:32:57.703460 2046 2038 2132.2998 2134.6407 2131.2594 2130.7392 2130.7392 2127.618 2127.8781 2131.2594 2132.2998 2134.6407 2128.3983 2129.4387 2158.5699 2516.9877 
14:32:57.711465 2044 2039 2129.9589 2133.3402 2130.7392 2131.2594 2131.2594 2132.0397 2129.1786 2130.4791 2132.5599 2135.1609 2129.4387 2130.219 2157.7896 2513.0862 
14:32:57.719438 2043 2038 2130.219 2132.2998 2130.7392 2130.9993 2130.219 2135.6811 2129.1786 2132.0397 2133.0801 2135.1609 2132.0397 2130.7392 2158.83 2512.3059 
14:32:57.727530 2046 2038 2132.0397 2132.2998 2132.0397 2133.3402 2130.219 2130.4791 2130.4791 2132.82 2133.0801 2134.1205 2132.5599 2130.7392 2159.0901 2510.4852 
14:32:57.735452 2045 2037 2133.6003 2129.9589 2131.2594 2130.9993 2129.1786 2126.3175 2126.5776 2130.7392 2132.2998 2135.421 2132.0397 2134.3806 2158.5699 2514.6468 
14:32:57.743459 2044 2038 2130.7392 2128.9185 2132.2998 2129.9589 2129.9589 2130.219 2130.4791 2132.2998 2132.5599 2135.9412 2133.3402 2137.2417 2158.0497 2513.0862 
14:32:57.751448 2043 2038 2134.9008 2130.4791 2132.2998 2129.4387 2128.3983 2135.421 2130.4791 2133.8604 2132.0397 2134.3806 2136.4614 2140.623 2161.6911 2518.5483 
14:32:57.758494 2045 2037 2133.6003 2130.9993 2131.7796 2131.5195 2131.7796 2135.421 2131.7796 2133.8604 2132.82 2134.6407 2136.9816 2138.5422 2160.1305 2515.4271 
14:32:57.766449 2045 2039 2133.3402 2129.1786 2130.7392 2128.9185 2131.7796 2133.6003 2128.6584 2132.0397 2132.82 2136.2013 2134.6407 2137.7619 2159.6103 2518.5483 
14:32:57.774453 2045 2038 2131.5195 2130.7392 2132.2998 2131.7796 2131.7796 2132.5599 2133.0801 2131.7796 2132.2998 2135.9412 2132.0397 2136.4614 2160.3906 2516.9877 
14:32:57.782451 2044 2038 2131.7796 2133.6003 2132.0397 2131.5195 2130.4791 2132.5599 2132.5599 2131.2594 2133.6003 2136.2013 2132.82 2138.022 2161.9512 2518.2882 
14:32:57.790527 2045 2038 2128.9185 2134.9008 2132.2998 2131.7796 2133.3402 2133.8604 2133.3402 2131.2594 2134.6407 2135.6811 2130.4791 2133.3402 2159.0901 2515.9473 
14:32:57.798452 2043 2037 2130.9993 2133.8604 2132.0397 2130.7392 2133.6003 2135.6811 2131.2594 2130.9993 2133.3402 2134.6407 2129.1786 2133.6003 2161.1709 2521.4094 
14:32:57.806446 2045 2038 2132.82 2133.3402 2130.9993 2131.2594 2133.3402 2133.8604 2131.5195 2130.4791 2132.2998 2135.6811 2130.9993 2133.3402 2160.9108 2516.7276 
14:32:57.814452 2046 2039 2131.7796 2133.0801 2131.2594 2130.9993 2129.9589 2128.1382 2129.1786 2129.9589 2133.0801 2136.4614 2132.2998 2131.5195 2158.5699 2514.1266 
14:32:57.821488 2045 2040 2128.6584 2133.3402 2132.0397 2131.7796 2129.9589 2127.0978 2127.8781 2129.9589 2132.5599 2134.6407 2129.1786 2129.1786 2157.7896 2515.4271 
14:32:57.829458 2047 2039 2128.6584 2131.7796 2132.5599 2131.7796 2130.219 2128.3983 2125.7973 2131.5195 2132.5599 2134.1205 2129.9589 2130.9993 2158.3098 2516.2074 
14:32:57.837457 2046 2039 2130.7392 2131.2594 2131.7796 2130.4791 2129.9589 2128.6584 2126.3175 2131.5195 2132.82 2135.1609 2132.0397 2130.9993 2157.2694 2513.0862 
14:32:57.845454 2044 2037 2130.7392 2130.9993 2132.0397 2132.0397 2130.9993 2128.1382 2128.9185 2130.7392 2132.5599 2134.3806 2133.3402 2132.0397 2157.0093 2509.7049 
14:32:57.853482 2044 2038 2131.7796 2130.9993 2131.5195 2131.2594 2130.9993 2130.9993 2128.9185 2131.5195 2133.3402 2133.6003 2133.6003 2134.9008 2158.83 2513.3463 
14:32:57.861460 2043 2039 2132.2998 2130.4791 2131.7796 2130.219 2130.9993 2132.82 2132.2998 2133.0801 2134.3806 2134.3806 2134.6407 2135.421 2159.3502 2513.6064 
14:32:57.869458 2044 2039 2134.1205 2131.2594 2130.9993 2129.1786 2130.7392 2131.7796 2132.82 2130.9993 2132.82 2134.3806 2135.421 2137.5018 2160.1305 2516.9877 
14:32:57.877459 2047 2040 2132.0397 2132.2998 2131.5195 2130.7392 2132.2998 2129.6988 2133.6003 2130.7392 2132.82 2133.8604 2135.6811 2138.8023 2159.3502 2515.6872 
14:32:57.885490 2047 2039 2132.82 2133.3402 2130.9993 2128.3983 2130.7392 2131.7796 2130.4791 2131.5195 2133.0801 2134.3806 2134.6407 2138.5422 2161.431 2522.1897 
14:32:57.892467 2044 2036 2132.0397 2133.3402 2131.2594 2129.1786 2132.82 2134.3806 2132.5599 2131.7796 2133.0801 2135.9412 2133.6003 2136.4614 2162.9916 2519.5887 
14:32:57.900444 2045 2038 2133.8604 2132.2998 2130.7392 2129.6988 2132.0397 2135.421 2130.219 2130.4791 2134.6407 2137.7619 2134.3806 2137.2417 2162.4714 2519.8488 
14:32:57.908485 2047 2037 2131.2594 2133.6003 2132.2998 2133.6003 2132.2998 2134.1205 2131.7796 2131.5195 2135.6811 2137.5018 2132.2998 2134.6407 2159.3502 2516.2074 
14:32:57.916490 2047 2039 2133.3402 2134.9008 2132.5599 2132.0397 2132.0397 2131.7796 2130.9993 2131.5195 2133.0801 2134.9008 2131.2594 2135.6811 2162.4714 2520.1089 
14:32:57.924465 2047 2040 2131.2594 2134.1205 2132.2998 2132.0397 2132.5599 2128.3983 2132.2998 2131.2594 2132.82 2133.8604 2129.6988 2132.82 2160.6507 2516.2074 
14:32:57.932462 2045 2038 2129.6988 2132.2998 2131.5195 2130.9993 2129.4387 2126.0574 2127.8781 2130.219 2134.3806 2134.9008 2128.6584 2130.219 2158.0497 2515.9473 
14:32:57.940495 2045 2037 2128.1382 2132.82 2132.82 2132.0397 2130.7392 2129.1786 2128.6584 2130.219 2133.6003 2134.9008 2130.219 2129.4387 2158.0497 2512.0458 
14:32:57.948496 2044 2037 2130.7392 2132.82 2132.82 2129.9589 2129.6988 2134.9008 2126.5776 2129.4387 2133.0801 2134.9008 2133.0801 2133.8604 2159.6103 2513.8665 
14:32:57.955463 2044 2036 2130.9993 2133.6003 2132.2998 2129.6988 2129.1786 2135.1609 2127.0978 2129.1786 2133.0801 2135.6811 2130.9993 2132.5599 2157.7896 2513.0862 
14:32:57.963461 2046 2040 2132.5599 2133.3402 2131.7796 2130.9993 2129.9589 2128.3983 2127.0978 2130.7392 2132.0397 2135.1609 2132.0397 2132.2998 2158.3098 2513.6064 
14:32:57.971545 2046 2039 2132.2998 2131.7796 2131.5195 2130.4791 2131.2594 2125.017 2129.4387 2131.5195 2131.5195 2133.8604 2134.6407 2133.6003 2160.1305 2513.8665 
14:32:57.979512 2044 2038 2130.9993 2130.4791 2132.5599 2129.4387 2129.9589 2127.0978 2130.219 2131.2594 2132.2998 2134.3806 2134.6407 2136.9816 2160.3906 2514.6468 
14:32:57.987447 2045 2038 2132.0397 2132.82 2132.0397 2129.9589 2129.6988 2132.82 2130.219 2131.5195 2131.5195 2136.2013 2133.0801 2136.2013 2159.8704 2515.167 
14:32:57.995460 2043 2037 2132.0397 2133.8604 2131.5195 2132.0397 2131.7796 2138.022 2132.2998 2133.6003 2132.2998 2135.6811 2133.8604 2134.1205 2159.0901 2515.4271 
14:32:58.003487 2044 2037 2132.5599 2131.5195 2131.5195 2131.2594 2132.0397 2137.7619 2131.5195 2133.8604 2133.8604 2134.6407 2134.3806 2136.2013 2160.9108 2520.8892 
14:32:58.011469 2044 2038 2130.9993 2130.9993 2133.0801 2132.0397 2132.5599 2132.0397 2134.1205 2133.0801 2134.9008 2135.421 2134.3806 2138.2821 2162.2113 2517.768 
14:32:58.018444 2044 2039 2133.6003 2132.5599 2130.9993 2130.219 2132.0397 2129.6988 2130.7392 2131.2594 2134.1205 2136.2013 2134.1205 2137.7619 2161.6911 2520.1089 
14:32:58.026457 2046 2038 2132.5599 2133.3402 2130.219 2132.2998 2133.3402 2129.9589 2130.219 2132.0397 2133.6003 2135.6811 2130.7392 2134.3806 2159.0901 2519.0685 
14:32:58.034466 2047 2038 2132.5599 2133.8604 2130.9993 2131.2594 2130.9993 2132.0397 2129.1786 2130.4791 2133.6003 2135.9412 2128.6584 2135.6811 2160.6507 2520.8892 
14:32:58.042468 2044 2038 2128.3983 2134.6407 2132.82 2131.5195 2130.7392 2133.0801 2131.2594 2129.6988 2134.3806 2136.7215 2129.9589 2133.3402 2159.3502 2513.8665 
14:32:58.050442 2044 2037 2129.9589 2133.6003 2132.0397 2130.219 2130.9993 2131.2594 2125.5372 2131.2594 2133.8604 2135.421 2132.2998 2133.0801 2158.83 2516.7276 
14:32:58.058454 2044 2037 2129.1786 2133.0801 2132.0397 2132.82 2133.0801 2129.4387 2128.3983 2133.0801 2132.82 2134.1205 2132.5599 2131.7796 2157.5295 2512.566 
14:32:58.066650 2045 2038 2128.9185 2132.82 2131.5195 2130.9993 2130.4791 2130.4791 2129.9589 2132.0397 2133.8604 2134.9008 2131.7796 2131.7796 2158.83 2513.3463 
14:32:58.074461 2046 2038 2127.0978 2132.0397 2131.7796 2132.5599 2129.9589 2129.1786 2131.5195 2132.0397 2134.6407 2135.1609 2131.2594 2130.9993 2158.3098 2511.0054 
14:32:58.081442 2046 2039 2131.7796 2132.0397 2131.2594 2132.0397 2129.1786 2126.8377 2128.9185 2132.2998 2133.8604 2134.1205 2135.1609 2134.9008 2159.6103 2512.0458 
14:32:58.089448 2045 2040 2132.82 2134.1205 2131.5195 2130.219 2130.7392 2130.4791 2133.6003 2132.82 2132.82 2134.1205 2135.6811 2136.2013 2159.3502 2510.4852 
14:32:58.097632 2044 2038 2133.0801 2133.0801 2130.9993 2129.4387 2130.7392 2134.9008 2133.0801 2132.0397 2132.0397 2134.3806 2134.1205 2137.2417 2160.6507 2516.7276 
14:32:58.105481 2044 2037 2133.3402 2130.7392 2131.7796 2131.5195 2131.5195 2134.9008 2131.5195 2129.9589 2132.0397 2133.6003 2134.9008 2136.7215 2161.431 2518.2882 
14:32:58.113454 2044 2039 2134.3806 2129.4387 2132.2998 2131.5195 2130.9993 2132.2998 2129.6988 2130.9993 2133.0801 2133.6003 2137.2417 2138.8023 2161.6911 2518.0281 
14:32:58.121434 2046 2037 2132.82 2131.7796 2131.5195 2131.2594 2131.2594 2129.9589 2130.4791 2132.5599 2133.6003 2134.3806 2134.1205 2138.2821 2161.9512 2519.5887 
14:32:58.129590 2046 2038 2131.5195 2133.0801 2131.5195 2132.0397 2133.0801 2129.9589 2133.3402 2131.5195 2133.3402 2135.1609 2134.3806 2138.2821 2162.9916 2519.0685 
14:32:58.137466 2045 2038 2132.5599 2133.0801 2131.7796 2130.219 2133.6003 2132.82 2132.82 2129.9589 2133.6003 2135.1609 2134.6407 2136.9816 2161.431 2518.2882 
14:32:58.145602 2046 2037 2130.4791 2134.6407 2132.0397 2130.7392 2132.82 2133.8604 2132.0397 2131.5195 2134.3806 2134.9008 2130.219 2132.82 2159.6103 2516.2074 
14:32:58.152466 2045 2037 2130.4791 2135.9412 2130.9993 2129.9589 2131.2594 2134.6407 2131.2594 2131.5195 2134.6407 2134.9008 2128.6584 2130.7392 2160.6507 2517.2478 
14:32:58.160630 2046 2038 2128.6584 2134.1205 2132.2998 2130.7392 2131.2594 2132.2998 2131.5195 2131.7796 2135.1609 2135.421 2131.7796 2130.219 2157.2694 2511.7857 
14:32:58.168532 2047 2039 2130.219 2133.0801 2131.7796 2130.219 2129.4387 2128.1382 2123.9766 2131.7796 2133.8604 2135.1609 2131.2594 2130.9993 2156.7492 2516.4675 
14:32:58.176506 2046 2038 2129.9589 2133.6003 2131.5195 2132.82 2130.9993 2126.0574 2125.5372 2132.5599 2133.0801 2134.9008 2130.219 2130.4791 2158.83 2514.1266 
14:32:58.184522 2044 2037 2132.0397 2132.2998 2130.7392 2130.7392 2129.9589 2128.9185 2127.3579 2131.7796 2133.8604 2135.6811 2132.2998 2133.6003 2160.6507 2515.167 
14:32:58.192614 2044 2039 2129.6988 2132.2998 2132.5599 2131.5195 2130.4791 2131.7796 2130.219 2132.2998 2134.1205 2135.6811 2132.2998 2133.0801 2159.0901 2511.7857 
14:32:58.200884 2045 2038 2132.5599 2132.2998 2131.5195 2129.9589 2129.1786 2133.6003 2126.8377 2132.2998 2132.2998 2134.6407 2132.2998 2133.6003 2160.1305 2515.9473 
14:32:58.208486 2045 2038 2132.82 2131.2594 2130.9993 2131.5195 2129.9589 2134.1205 2130.9993 2132.0397 2131.5195 2134.3806 2133.3402 2134.9008 2159.6103 2512.0458 
14:32:58.215721 2046 2038 2133.0801 2131.2594 2132.2998 2130.4791 2129.4387 2130.4791 2131.2594 2132.5599 2132.0397 2134.1205 2135.1609 2139.5826 2160.6507 2512.8261 
14:32:58.223584 2046 2038 2131.2594 2133.3402 2133.6003 2130.219 2132.2998 2127.8781 2133.0801 2132.82 2133.6003 2133.3402 2134.6407 2136.7215 2159.8704 2511.2655 
14:32:58.231813 2045 2037 2134.3806 2132.0397 2131.7796 2128.1382 2131.7796 2131.5195 2131.2594 2131.5195 2134.6407 2134.3806 2134.9008 2136.9816 2160.9108 2519.0685 
14:32:58.239582 2045 2036 2133.6003 2132.2998 2130.9993 2130.7392 2132.2998 2135.9412 2131.5195 2132.0397 2134.3806 2135.1609 2133.8604 2138.2821 2162.2113 2519.8488 
14:32:58.247561 2044 2037 2132.0397 2133.8604 2131.2594 2132.0397 2133.3402 2135.1609 2130.219 2131.7796 2134.6407 2134.9008 2133.6003 2138.2821 2163.5118 2518.8084 
14:32:58.255599 2045 2037 2131.2594 2133.6003 2130.9993 2130.9993 2134.6407 2131.5195 2129.6988 2129.6988 2134.9008 2134.3806 2130.9993 2134.6407 2161.9512 2518.2882 
14:32:58.263450 2044 2037 2131.2594 2132.82 2131.7796 2130.9993 2132.2998 2128.1382 2127.0978 2129.6988 2135.421 2135.1609 2130.219 2134.3806 2162.2113 2519.5887 
14:32:58.271529 2046 2038 2130.7392 2133.8604 2132.2998 2131.2594 2130.4791 2128.1382 2126.5776 2131.7796 2134.9008 2135.9412 2130.9993 2133.6003 2161.431 2517.5079 
14:32:58.278605 2046 2038 2129.4387 2133.3402 2133.0801 2132.2998 2132.0397 2129.1786 2128.3983 2131.7796 2132.82 2135.1609 2130.219 2129.4387 2158.0497 2511.7857 
14:32:58.286513 2046 2040 2129.6988 2132.2998 2132.2998 2132.0397 2132.0397 2129.9589 2128.1382 2129.9589 2131.5195 2134.6407 2127.618 2127.3579 2157.0093 2512.566 
14:32:58.294473 2044 2039 2128.1382 2132.82 2132.5599 2133.3402 2130.219 2129.4387 2129.9589 2129.9589 2133.3402 2134.9008 2130.7392 2129.4387 2157.5295 2508.4044 
14:32:58.302537 2046 2038 2131.7796 2133.8604 2131.7796 2130.4791 2127.8781 2128.9185 2127.618 2129.6988 2134.9008 2134.6407 2134.6407 2134.3806 2158.3098 2511.0054 
14:32:58.310574 2046 2037 2133.0801 2133.3402 2131.5195 2130.7392 2130.219 2129.6988 2129.1786 2131.5195 2134.3806 2134.3806 2134.3806 2134.6407 2158.0497 2509.965 
14:32:58.318528 2045 2037 2134.6407 2130.9993 2131.2594 2128.9185 2130.7392 2133.0801 2128.9185 2131.7796 2132.5599 2134.3806 2134.9008 2134.9008 2161.9512 2515.9473 
14:32:58.334489 2046 2038 2134.9008 2131.7796 2130.4791 2130.4791 2128.6584 2129.4387 2129.6988 2131.2594 2131.5195 2134.6407 2135.9412 2139.3225 2161.1709 2516.7276 
14:32:58.341508 2046 2039 2133.6003 2131.5195 2131.2594 2133.0801 2129.4387 2129.4387 2132.5599 2133.0801 2130.219 2134.6407 2134.9008 2137.5018 2158.5699 2513.0862 
14:32:58.349548 2044 2039 2134.9008 2129.6988 2133.3402 2128.9185 2129.9589 2132.82 2131.5195 2132.82 2130.9993 2135.1609 2135.421 2138.2821 2161.431 2520.1089 
14:32:58.357551 2045 2038 2132.0397 2132.0397 2134.1205 2130.9993 2132.82 2135.1609 2133.0801 2133.6003 2134.1205 2135.6811 2132.82 2136.7215 2161.9512 2517.2478 
14:32:58.365473 2045 2038 2131.7796 2134.1205 2131.5195 2132.5599 2133.3402 2135.9412 2132.5599 2133.6003 2134.6407 2135.6811 2132.5599 2136.7215 2161.6911 2516.4675 
14:32:58.373600 2046 2039 2130.7392 2134.1205 2130.9993 2131.5195 2133.8604 2133.0801 2133.6003 2132.2998 2134.1205 2135.1609 2131.2594 2131.7796 2159.8704 2515.9473 
14:32:58.381545 2046 2037 2130.7392 2133.8604 2131.7796 2129.9589 2131.2594 2127.0978 2128.6584 2133.3402 2133.0801 2134.3806 2128.3983 2128.9185 2160.9108 2518.5483 
14:32:58.389570 2045 2037 2129.1786 2134.1205 2131.7796 2132.5599 2130.219 2126.3175 2128.1382 2134.9008 2132.2998 2133.6003 2128.6584 2129.1786 2161.6911 2513.8665 
14:32:58.397480 2045 2038 2130.219 2133.3402 2131.7796 2132.0397 2129.1786 2129.4387 2126.5776 2133.3402 2133.3402 2134.9008 2130.9993 2131.5195 2161.1709 2515.6872 
14:32:58.405906 2045 2038 2130.4791 2132.82 2131.7796 2131.5195 2130.4791 2134.1205 2125.7973 2130.9993 2134.1205 2135.9412 2129.9589 2130.9993 2159.0901 2517.2478 
14:32:58.412545 2048 2038 2129.6988 2131.7796 2131.5195 2131.5195 2130.7392 2133.8604 2128.1382 2131.5195 2133.0801 2134.9008 2131.5195 2131.5195 2158.0497 2511.5256 
14:32:58.420532 2047 2038 2129.9589 2131.5195 2130.7392 2130.219 2129.6988 2129.1786 2129.9589 2132.0397 2131.7796 2134.9008 2133.0801 2131.7796 2158.83 2509.1847 
14:32:58.428493 2047 2037 2130.4791 2131.7796 2131.7796 2131.5195 2130.219 2125.7973 2130.7392 2132.5599 2132.2998 2134.9008 2133.6003 2133.3402 2159.3502 2508.4044 
14:32:58.436875 2046 2038 2132.5599 2131.5195 2132.2998 2130.219 2130.4791 2130.9993 2129.9589 2131.7796 2132.82 2133.8604 2133.6003 2135.9412 2159.6103 2513.0862 
14:32:58.444541 2045 2038 2131.2594 2131.2594 2132.5599 2131.5195 2130.9993 2136.9816 2132.5599 2133.3402 2132.5599 2133.6003 2134.6407 2137.7619 2159.8704 2514.6468 
14:32:58.452538 2046 2039 2132.82 2131.5195 2130.219 2132.0397 2129.4387 2135.421 2129.1786 2134.3806 2132.2998 2134.3806 2135.6811 2140.1028 2161.9512 2520.1089 
14:32:58.460463 2046 2039 2132.82 2132.0397 2129.4387 2132.82 2131.2594 2130.219 2131.2594 2135.1609 2133.6003 2134.3806 2135.421 2139.0624 2161.6911 2518.8084 
14:32:58.468846 2047 2038 2134.6407 2131.7796 2130.219 2128.9185 2131.5195 2129.4387 2130.4791 2133.8604 2132.5599 2134.1205 2134.6407 2137.7619 2162.2113 2523.2301 
14:32:58.475495 2044 2038 2131.5195 2132.2998 2132.82 2131.7796 2132.5599 2132.0397 2131.7796 2133.6003 2131.5195 2134.9008 2133.6003 2136.2013 2161.1709 2519.0685 
14:32:58.483538 2044 2036 2133.8604 2132.0397 2131.7796 2130.9993 2131.5195 2134.9008 2129.1786 2133.0801 2133.8604 2135.9412 2135.1609 2139.5826 2161.9512 2519.3286 
14:32:58.491470 2046 2038 2132.0397 2133.3402 2131.5195 2130.9993 2133.3402 2132.2998 2132.2998 2134.1205 2135.421 2135.1609 2132.2998 2133.8604 2159.8704 2514.9069 
14:32:58.499679 2046 2038 2130.4791 2134.6407 2130.4791 2131.5195 2131.5195 2128.1382 2129.6988 2133.3402 2133.6003 2134.1205 2129.4387 2130.4791 2160.6507 2517.768 
14:32:58.507577 2045 2038 2128.6584 2134.9008 2132.0397 2134.1205 2131.5195 2127.618 2129.4387 2132.2998 2132.82 2134.6407 2130.7392 2131.2594 2157.5295 2511.7857 
14:32:58.515528 2045 2038 2130.9993 2133.6003 2132.5599 2132.2998 2130.7392 2128.1382 2126.0574 2132.0397 2133.0801 2134.6407 2131.7796 2132.5599 2155.9689 2512.3059 
14:32:58.523508 2045 2038 2130.219 2133.6003 2132.0397 2131.5195 2132.0397 2129.4387 2126.8377 2132.5599 2133.0801 2133.8604 2128.9185 2129.4387 2158.0497 2512.8261 
14:32:58.531521 2044 2038 2131.7796 2134.3806 2130.4791 2131.2594 2129.9589 2132.2998 2127.618 2132.2998 2132.82 2134.6407 2130.7392 2131.2594 2159.6103 2512.3059 
14:32:58.540090 2044 2039 2132.82 2132.82 2130.9993 2130.7392 2130.4791 2132.82 2129.4387 2133.6003 2132.5599 2134.6407 2133.3402 2134.6407 2157.2694 2509.7049 
14:32:58.546472 2047 2039 2132.0397 2130.219 2131.5195 2128.9185 2130.9993 2127.3579 2128.1382 2135.421 2132.82 2134.3806 2134.3806 2137.5018 2159.0901 2512.8261 
14:32:58.554440 2048 2039 2131.7796 2131.7796 2130.9993 2128.9185 2130.4791 2126.5776 2128.9185 2133.8604 2132.0397 2134.6407 2135.1609 2137.2417 2161.1709 2514.3867 
14:32:58.562522 2044 2037 2132.5599 2133.3402 2132.0397 2131.7796 2129.9589 2131.5195 2132.0397 2132.0397 2131.5195 2134.6407 2136.4614 2137.7619 2159.6103 2511.5256 
14:32:58.570990 2043 2037 2133.0801 2132.0397 2131.7796 2131.2594 2129.6988 2134.3806 2130.9993 2132.2998 2132.2998 2134.9008 2134.6407 2138.2821 2159.3502 2514.6468 
14:32:58.578483 2044 2039 2131.5195 2130.4791 2131.2594 2131.7796 2132.0397 2134.9008 2133.6003 2134.1205 2133.8604 2135.6811 2133.6003 2138.2821 2160.9108 2516.2074 
14:32:58.586441 2044 2038 2132.82 2132.5599 2131.2594 2131.5195 2132.0397 2135.6811 2134.9008 2133.6003 2133.0801 2134.6407 2132.5599 2137.2417 2162.9916 2520.6291 
14:32:58.594519 2046 2039 2132.0397 2133.8604 2132.2998 2132.2998 2132.5599 2131.7796 2133.8604 2133.3402 2132.0397 2133.8604 2132.2998 2136.2013 2162.4714 2518.0281 
14:32:58.602567 2046 2039 2133.0801 2132.0397 2130.9993 2127.8781 2131.7796 2128.9185 2128.6584 2132.0397 2132.5599 2135.6811 2134.6407 2137.5018 2160.9108 2519.0685 
14:32:58.609456 2047 2038 2130.7392 2131.2594 2131.5195 2130.219 2133.3402 2131.2594 2131.7796 2133.0801 2134.1205 2136.2013 2132.2998 2133.6003 2158.5699 2515.9473 
14:32:58.617464 2045 2038 2131.5195 2133.8604 2132.2998 2130.9993 2131.7796 2134.6407 2128.6584 2132.82 2134.3806 2135.6811 2129.4387 2132.0397 2161.1709 2519.0685 
14:32:58.625548 2045 2038 2129.1786 2135.1609 2134.9008 2132.2998 2131.2594 2131.5195 2128.1382 2130.9993 2133.6003 2134.6407 2129.1786 2129.9589 2159.0901 2512.0458 
14:32:58.633531 2045 2038 2130.219 2133.0801 2133.8604 2130.7392 2129.9589 2128.1382 2126.0574 2129.9589 2133.3402 2134.3806 2129.6988 2130.9993 2157.5295 2514.9069 
14:32:58.641458 2046 2039 2128.9185 2132.2998 2131.7796 2132.5599 2132.0397 2127.618 2128.9185 2132.5599 2133.6003 2135.1609 2129.6988 2129.9589 2158.3098 2511.0054 
14:32:58.649462 2045 2039 2130.219 2132.5599 2131.2594 2131.5195 2129.4387 2126.0574 2127.3579 2132.5599 2133.8604 2135.6811 2131.5195 2131.7796 2159.8704 2508.9246 
14:32:58.657532 2045 2039 2130.219 2133.0801 2132.82 2131.5195 2129.1786 2127.0978 2130.9993 2132.82 2134.1205 2134.1205 2131.5195 2133.0801 2157.0093 2508.4044 
14:32:58.665524 2043 2037 2133.6003 2131.5195 2132.0397 2129.9589 2129.4387 2132.82 2127.3579 2135.1609 2134.1205 2134.6407 2133.0801 2136.7215 2159.0901 2514.9069 
14:32:58.673465 2043 2037 2133.6003 2131.2594 2132.0397 2130.4791 2131.2594 2138.8023 2127.8781 2133.8604 2133.6003 2136.4614 2134.6407 2137.2417 2161.431 2513.0862 
14:32:58.680535 2047 2037 2132.5599 2131.5195 2132.2998 2130.7392 2130.4791 2135.9412 2131.5195 2131.2594 2132.5599 2135.1609 2135.421 2139.5826 2162.4714 2515.4271 
14:32:58.688607 2048 2040 2132.0397 2132.0397 2131.2594 2129.9589 2131.2594 2128.3983 2132.5599 2133.0801 2132.2998 2134.3806 2134.3806 2140.1028 2162.4714 2519.0685 
14:32:58.696543 2045 2038 2132.2998 2130.4791 2130.4791 2128.3983 2132.5599 2125.7973 2130.4791 2134.1205 2133.3402 2136.2013 2134.3806 2138.5422 2163.2517 2519.0685 
14:32:58.704474 2045 2039 2132.0397 2130.7392 2130.7392 2128.6584 2132.5599 2130.7392 2132.82 2130.9993 2133.3402 2136.4614 2132.5599 2137.2417 2162.4714 2518.5483 
14:32:58.712533 2044 2038 2130.4791 2132.2998 2132.0397 2131.7796 2132.82 2135.9412 2135.6811 2131.5195 2133.3402 2135.421 2132.0397 2137.2417 2160.3906 2516.4675 
14:32:58.720539 2043 2037 2131.2594 2132.5599 2131.2594 2131.7796 2132.2998 2138.022 2132.0397 2133.6003 2132.82 2135.1609 2131.7796 2134.1205 2159.8704 2517.2478 
14:32:58.728539 2044 2037 2129.9589 2132.5599 2131.5195 2131.7796 2133.6003 2134.9008 2131.2594 2133.6003 2133.0801 2135.1609 2129.4387 2129.4387 2160.1305 2515.4271 
14:32:58.736469 2047 2039 2130.4791 2133.3402 2131.7796 2129.1786 2133.6003 2127.3579 2128.1382 2131.5195 2134.1205 2134.9008 2129.1786 2132.5599 2161.9512 2517.768 
14:32:58.743524 2047 2039 2128.6584 2134.1205 2132.2998 2130.7392 2132.2998 2121.6357 2128.6584 2132.0397 2133.8604 2134.1205 2132.0397 2133.0801 2159.6103 2511.0054 
14:32:58.751526 2045 2039 2132.2998 2133.8604 2130.4791 2130.9993 2127.618 2126.0574 2126.0574 2132.5599 2131.7796 2134.6407 2132.2998 2132.5599 2159.6103 2514.1266 
14:32:58.759527 2044 2038 2132.0397 2132.82 2131.2594 2133.0801 2129.4387 2132.5599 2127.0978 2132.82 2131.5195 2135.421 2130.4791 2130.9993 2159.0901 2511.7857 
14:32:58.767463 2044 2036 2132.82 2132.2998 2131.7796 2130.7392 2130.4791 2135.1609 2125.2771 2131.5195 2132.5599 2134.9008 2133.3402 2133.6003 2159.0901 2512.3059 
14:32:58.775509 2045 2038 2130.219 2132.2998 2132.2998 2131.5195 2130.7392 2132.2998 2130.7392 2133.0801 2133.3402 2134.6407 2134.9008 2135.6811 2158.83 2507.8842 
14:32:58.783526 2045 2039 2131.5195 2131.2594 2130.9993 2130.9993 2128.9185 2126.0574 2130.9993 2132.82 2132.82 2136.2013 2134.3806 2138.022 2160.1305 2512.3059 
14:32:58.791530 2047 2039 2130.7392 2130.219 2130.219 2131.7796 2132.2998 2125.5372 2133.6003 2132.2998 2132.5599 2135.6811 2133.8604 2135.6811 2158.0497 2511.5256 
14:32:58.799464 2044 2038 2133.0801 2129.9589 2130.219 2129.9589 2132.0397 2131.5195 2133.3402 2133.0801 2133.0801 2134.9008 2135.6811 2139.5826 2160.6507 2515.4271 
14:32:58.807100 2044 2038 2133.0801 2132.5599 2131.7796 2130.7392 2132.82 2135.421 2134.3806 2133.0801 2132.2998 2134.6407 2135.421 2141.6634 2162.4714 2516.9877 
14:32:58.814566 2043 2037 2133.8604 2132.5599 2131.2594 2129.4387 2132.82 2135.9412 2130.9993 2132.5599 2132.0397 2134.1205 2134.9008 2139.0624 2162.4714 2520.8892 
14:32:58.822592 2043 2037 2133.3402 2131.7796 2130.7392 2128.9185 2132.2998 2135.9412 2131.5195 2133.0801 2131.7796 2134.1205 2132.0397 2134.6407 2161.9512 2520.1089 
14:32:58.830535 2045 2038 2133.0801 2131.5195 2130.9993 2130.4791 2132.2998 2133.3402 2132.0397 2132.0397 2131.7796 2135.9412 2132.2998 2136.7215 2161.9512 2519.5887 
14:32:58.838583 2045 2037 2131.7796 2132.2998 2131.2594 2131.7796 2133.3402 2127.8781 2129.4387 2130.9993 2132.82 2136.2013 2133.0801 2135.1609 2159.0901 2518.5483 
14:32:58.846479 2046 2038 2130.7392 2133.8604 2131.7796 2132.2998 2132.82 2126.0574 2127.8781 2133.0801 2134.1205 2134.6407 2130.9993 2134.1205 2159.8704 2518.8084 
14:32:58.854529 2044 2039 2131.7796 2133.8604 2131.2594 2131.7796 2131.2594 2131.2594 2130.219 2133.3402 2132.5599 2134.9008 2130.219 2135.1609 2161.431 2517.5079 
14:32:58.862538 2044 2039 2129.4387 2132.82 2132.0397 2133.0801 2130.9993 2134.1205 2130.7392 2132.2998 2132.0397 2135.421 2132.5599 2131.2594 2157.5295 2508.6645 
14:32:58.870510 2043 2037 2129.4387 2133.0801 2132.2998 2131.5195 2130.4791 2131.2594 2126.5776 2131.5195 2133.3402 2134.6407 2130.7392 2127.618 2157.0093 2511.0054 
14:32:58.877466 2045 2038 2131.2594 2132.2998 2132.0397 2131.5195 2130.9993 2128.1382 2128.6584 2132.0397 2134.1205 2134.3806 2129.1786 2129.4387 2158.0497 2512.0458 
14:32:58.885525 2045 2039 2134.9008 2130.7392 2130.4791 2129.1786 2127.8781 2127.8781 2128.3983 2132.0397 2131.7796 2135.421 2132.0397 2133.6003 2157.2694 2512.566 
14:32:58.893873 2045 2039 2131.7796 2131.7796 2130.9993 2130.9993 2127.618 2126.5776 2129.9589 2133.3402 2131.7796 2135.421 2134.6407 2135.6811 2157.0093 2507.6241 
14:32:58.901519 2046 2038 2132.5599 2131.2594 2129.9589 2129.6988 2128.6584 2128.9185 2127.3579 2133.6003 2133.0801 2134.3806 2134.9008 2139.5826 2160.9108 2516.4675 
14:32:58.909461 2043 2037 2131.5195 2129.1786 2131.2594 2129.6988 2131.7796 2133.8604 2132.0397 2134.3806 2133.0801 2134.1205 2135.1609 2138.8023 2160.3906 2517.2478 
14:32:58.917595 2044 2037 2133.0801 2129.4387 2131.7796 2128.9185 2129.4387 2134.9008 2130.9993 2134.3806 2132.82 2135.1609 2134.9008 2139.0624 2161.6911 2517.768 
14:32:58.925617 2045 2038 2131.2594 2131.2594 2130.9993 2132.2998 2132.2998 2133.3402 2132.2998 2133.6003 2134.3806 2135.1609 2133.6003 2138.5422 2162.4714 2515.6872 
14:32:58.933523 2046 2039 2132.5599 2130.7392 2130.219 2131.5195 2134.1205 2132.5599 2131.2594 2132.5599 2133.8604 2134.6407 2135.1609 2139.3225 2163.5118 2521.9296 
14:32:58.940477 2045 2039 2130.4791 2134.1205 2132.2998 2131.2594 2134.3806 2131.7796 2136.7215 2133.0801 2132.82 2133.8604 2132.82 2135.421 2162.4714 2517.5079 
14:32:58.948465 2046 2039 2130.9993 2135.421 2131.5195 2130.7392 2133.6003 2131.7796 2134.3806 2133.0801 2133.6003 2134.6407 2132.0397 2137.5018 2163.2517 2516.9877 
14:32:58.956567 2044 2038 2131.5195 2133.0801 2130.219 2132.2998 2134.1205 2134.9008 2130.4791 2133.6003 2133.8604 2135.1609 2132.5599 2135.6811 2160.6507 2517.768 
14:32:58.964581 2043 2037 2132.0397 2132.2998 2131.5195 2132.2998 2131.7796 2134.6407 2127.0978 2132.2998 2133.3402 2134.9008 2131.5195 2132.0397 2160.3906 2520.369 
14:32:58.972547 2044 2039 2130.4791 2134.3806 2133.0801 2131.2594 2130.7392 2130.9993 2127.3579 2130.9993 2132.5599 2135.1609 2129.4387 2130.7392 2160.6507 2514.3867 
14:32:58.980471 2045 2038 2130.219 2133.3402 2132.2998 2130.7392 2130.4791 2127.0978 2126.5776 2132.0397 2132.0397 2135.6811 2131.5195 2132.5599 2159.0901 2510.4852 
14:32:58.988571 2046 2037 2130.7392 2132.2998 2131.5195 2130.7392 2129.9589 2126.0574 2126.5776 2132.5599 2132.0397 2135.421 2132.2998 2131.5195 2158.3098 2513.3463 
14:32:58.996593 2045 2038 2130.219 2132.2998 2132.0397 2131.2594 2130.219 2127.3579 2128.9185 2132.5599 2132.5599 2135.1609 2131.7796 2130.219 2158.3098 2511.5256 
14:32:59.003586 2044 2038 2131.7796 2132.82 2130.4791 2130.9993 2129.9589 2132.0397 2129.9589 2133.0801 2132.2998 2134.3806 2132.2998 2132.0397 2157.7896 2509.7049 
14:32:59.011537 2044 2038 2132.0397 2131.7796 2130.7392 2132.0397 2130.7392 2135.6811 2131.7796 2134.1205 2132.0397 2133.6003 2134.3806 2134.9008 2158.83 2508.1443 
14:32:59.019497 2047 2038 2133.6003 2129.9589 2130.7392 2129.1786 2129.9589 2134.9008 2129.9589 2133.3402 2131.5195 2133.6003 2135.6811 2137.2417 2161.6911 2514.6468 
14:32:59.027461 2048 2039 2132.2998 2130.4791 2130.7392 2129.6988 2130.9993 2130.7392 2133.8604 2133.0801 2131.7796 2134.1205 2135.9412 2138.2821 2160.6507 2514.9069 
14:32:59.035549 2046 2039 2133.8604 2133.3402 2130.219 2129.9589 2130.4791 2128.3983 2133.8604 2131.2594 2131.2594 2134.1205 2134.6407 2140.1028 2162.9916 2521.1493 
14:32:59.043944 2043 2038 2133.3402 2132.5599 2131.5195 2132.0397 2132.5599 2132.0397 2135.1609 2131.7796 2132.0397 2134.1205 2134.1205 2139.0624 2163.7719 2519.5887 
14:32:59.051532 2043 2038 2134.9008 2129.9589 2131.2594 2129.9589 2131.7796 2138.2821 2130.9993 2132.0397 2133.3402 2134.1205 2135.421 2138.5422 2162.9916 2522.4498 
14:32:59.059455 2044 2037 2130.4791 2132.2998 2132.0397 2133.0801 2133.8604 2137.7619 2132.2998 2132.5599 2133.0801 2134.9008 2133.0801 2137.2417 2161.6911 2519.8488 
14:32:59.066766 2046 2037 2130.9993 2134.6407 2131.7796 2132.0397 2132.82 2130.9993 2129.6988 2132.2998 2132.2998 2136.7215 2132.82 2138.5422 2162.4714 2520.6291 
14:32:59.074523 2045 2039 2129.9589 2133.6003 2132.0397 2131.5195 2133.3402 2125.2771 2130.7392 2132.82 2133.0801 2136.9816 2132.5599 2131.2594 2159.0901 2513.6064 
14:32:59.082547 2044 2038 2130.219 2132.5599 2131.2594 2130.7392 2132.0397 2126.0574 2127.618 2132.2998 2133.0801 2135.9412 2128.9185 2129.1786 2159.0901 2517.5079 
14:32:59.090531 2044 2038 2129.1786 2134.1205 2132.2998 2133.3402 2131.7796 2132.5599 2128.9185 2132.5599 2132.2998 2136.2013 2127.0978 2131.2594 2158.5699 2515.167 
14:32:59.098602 2043 2038 2130.9993 2133.6003 2133.6003 2132.0397 2129.1786 2135.1609 2127.0978 2131.7796 2133.0801 2135.6811 2131.2594 2132.2998 2158.0497 2511.7857 
14:32:59.106495 2044 2039 2130.4791 2132.82 2133.3402 2130.7392 2130.219 2130.9993 2127.0978 2132.0397 2133.3402 2134.6407 2132.2998 2128.3983 2157.5295 2509.4448 
14:32:59.114666 2046 2038 2130.9993 2131.7796 2132.2998 2129.6988 2130.4791 2125.2771 2127.3579 2134.3806 2132.5599 2136.4614 2132.82 2131.7796 2159.0901 2513.0862 
14:32:59.122511 2046 2038 2132.0397 2130.9993 2131.5195 2130.4791 2129.6988 2124.2367 2130.219 2134.1205 2131.5195 2136.7215 2134.9008 2137.7619 2159.3502 2513.0862 
14:32:59.130517 2045 2037 2133.0801 2130.219 2131.7796 2131.5195 2130.219 2128.9185 2130.4791 2133.0801 2131.2594 2134.1205 2135.9412 2140.1028 2159.8704 2511.5256 
14:32:59.137448 2044 2036 2133.3402 2129.6988 2131.2594 2130.219 2130.7392 2134.9008 2128.9185 2133.0801 2132.0397 2133.8604 2134.9008 2137.5018 2160.1305 2515.4271 
14:32:59.145866 2045 2038 2131.7796 2130.219 2132.0397 2131.5195 2130.219 2135.9412 2133.3402 2133.6003 2133.6003 2136.2013 2134.6407 2137.2417 2160.6507 2515.6872 
14:32:59.153459 2044 2039 2132.5599 2132.5599 2130.9993 2131.7796 2130.4791 2133.6003 2134.1205 2131.7796 2132.2998 2136.4614 2133.3402 2139.3225 2162.4714 2516.2074 
14:32:59.161528 2046 2038 2132.2998 2133.6003 2130.219 2131.5195 2132.82 2130.4791 2134.1205 2131.2594 2131.2594 2135.421 2134.1205 2138.5422 2161.431 2514.6468 
14:32:59.169448 2045 2038 2133.3402 2132.0397 2130.219 2129.6988 2132.0397 2130.7392 2131.5195 2130.9993 2132.2998 2134.9008 2134.9008 2138.022 2161.431 2521.4094 
14:32:59.177518 2044 2037 2131.2594 2131.7796 2132.5599 2132.2998 2131.5195 2133.8604 2132.5599 2131.5195 2133.8604 2134.6407 2132.2998 2136.9816 2160.6507 2519.8488 
14:32:59.185616 2044 2038 2133.3402 2133.0801 2132.0397 2130.4791 2131.5195 2136.2013 2129.1786 2130.9993 2133.3402 2135.6811 2132.5599 2138.2821 2160.9108 2520.8892 
14:32:59.193496 2045 2038 2130.219 2134.1205 2131.5195 2131.5195 2133.8604 2131.2594 2129.9589 2132.0397 2133.3402 2135.9412 2131.2594 2134.1205 2158.83 2515.167 
14:32:59.201444 2046 2038 2130.7392 2133.6003 2130.7392 2131.2594 2130.9993 2126.8377 2126.5776 2132.2998 2132.82 2135.9412 2128.9185 2131.7796 2159.8704 2516.4675 
14:32:59.208542 2046 2039 2129.1786 2132.82 2130.9993 2132.2998 2129.6988 2126.8377 2128.9185 2132.5599 2132.5599 2136.4614 2129.1786 2129.6988 2158.3098 2511.0054 
14:32:59.216902 2046 2039 2129.9589 2133.0801 2130.4791 2129.9589 2128.9185 2128.1382 2127.0978 2132.0397 2133.6003 2136.2013 2130.4791 2132.0397 2158.5699 2513.6064 
14:32:59.224519 2044 2038 2128.1382 2134.1205 2132.2998 2131.5195 2132.2998 2130.7392 2128.6584 2132.2998 2134.3806 2134.9008 2129.6988 2131.5195 2158.3098 2510.4852 
14:32:59.232463 2044 2038 2130.9993 2131.5195 2131.7796 2131.2594 2130.219 2132.82 2127.0978 2132.2998 2132.0397 2135.421 2131.7796 2131.7796 2158.3098 2509.965 
14:32:59.240589 2046 2038 2132.0397 2130.219 2130.4791 2131.2594 2129.4387 2130.7392 2130.7392 2132.82 2131.5195 2135.6811 2133.6003 2133.8604 2158.3098 2509.7049 
14:32:59.248558 2044 2039 2133.3402 2131.2594 2130.7392 2129.1786 2129.6988 2126.5776 2130.4791 2132.2998 2133.0801 2134.6407 2134.9008 2138.2821 2160.6507 2514.3867 
14:32:59.256472 2044 2038 2133.0801 2132.2998 2132.0397 2129.4387 2131.5195 2127.8781 2130.7392 2131.2594 2133.3402 2135.6811 2135.1609 2137.2417 2159.8704 2515.167 
14:32:59.264546 2043 2036 2133.8604 2131.2594 2133.0801 2131.2594 2130.9993 2131.2594 2132.0397 2132.2998 2133.6003 2136.4614 2135.1609 2138.022 2160.9108 2517.768 
14:32:59.271588 2045 2037 2134.1205 2131.2594 2133.6003 2130.9993 2130.9993 2133.8604 2133.0801 2133.3402 2133.6003 2135.1609 2133.6003 2140.1028 2162.7315 2518.8084 
14:32:59.279526 2044 2038 2132.2998 2129.9589 2133.3402 2130.7392 2132.82 2135.9412 2132.82 2132.2998 2132.82 2135.6811 2135.1609 2139.5826 2162.4714 2515.9473 
14:32:59.287466 2046 2038 2131.5195 2132.0397 2132.0397 2131.2594 2133.6003 2135.421 2132.5599 2130.219 2132.2998 2136.4614 2134.9008 2136.9816 2160.3906 2517.2478 
14:32:59.295545 2046 2039 2129.9589 2135.6811 2132.2998 2133.6003 2135.1609 2130.4791 2134.3806 2132.0397 2133.6003 2135.9412 2130.9993 2136.4614 2159.6103 2516.7276 
14:32:59.303533 2045 2038 2131.2594 2135.6811 2131.7796 2131.7796 2134.6407 2129.1786 2131.2594 2132.2998 2134.3806 2135.6811 2129.6988 2135.1609 2160.6507 2518.2882 
14:32:59.311523 2044 2039 2129.6988 2135.1609 2131.7796 2131.5195 2133.0801 2130.7392 2129.6988 2131.5195 2134.3806 2135.9412 2130.219 2130.219 2159.3502 2515.4271 
14:32:59.319468 2045 2039 2131.5195 2135.9412 2131.2594 2129.6988 2130.7392 2132.0397 2126.3175 2131.2594 2132.82 2135.421 2128.9185 2130.219 2159.3502 2518.2882 
14:32:59.327550 2044 2038 2130.219 2134.3806 2131.7796 2132.5599 2131.7796 2129.9589 2127.8781 2133.3402 2132.82 2135.6811 2128.3983 2130.219 2157.2694 2512.8261 
14:32:59.334533 2047 2037 2131.7796 2132.82 2131.2594 2132.2998 2129.1786 2128.3983 2125.2771 2132.0397 2134.3806 2136.4614 2130.9993 2132.0397 2157.7896 2515.4271 
14:32:59.350487 2044 2037 2130.9993 2132.82 2131.7796 2128.9185 2129.6988 2128.1382 2128.3983 2131.5195 2131.5195 2135.421 2132.2998 2134.3806 2158.83 2511.0054 
14:32:59.358491 2045 2038 2130.7392 2132.2998 2132.82 2131.7796 2130.219 2131.5195 2132.5599 2131.7796 2132.0397 2133.8604 2133.3402 2136.4614 2159.0901 2508.1443 
14:32:59.366529 2045 2038 2132.82 2132.0397 2132.5599 2130.9993 2127.618 2133.0801 2129.6988 2132.0397 2134.9008 2133.3402 2135.6811 2139.0624 2160.1305 2512.8261 
14:32:59.374589 2045 2037 2130.9993 2132.0397 2131.2594 2130.7392 2130.7392 2134.1205 2132.2998 2132.2998 2134.9008 2134.6407 2133.8604 2136.2013 2158.3098 2512.566 
14:32:59.382459 2045 2038 2133.0801 2130.7392 2130.4791 2130.219 2132.5599 2134.3806 2132.82 2133.0801 2132.2998 2135.6811 2133.0801 2139.3225 2160.9108 2517.2478 
14:32:59.390563 2046 2038 2133.8604 2130.4791 2131.5195 2130.9993 2132.2998 2133.0801 2132.5599 2134.1205 2132.5599 2135.1609 2133.8604 2141.9235 2163.7719 2518.0281 
14:32:59.398528 2046 2038 2133.8604 2131.5195 2129.9589 2129.4387 2130.9993 2132.82 2130.9993 2133.0801 2133.3402 2134.3806 2135.9412 2140.623 2163.2517 2520.8892 
14:32:59.405558 2043 2039 2132.5599 2132.82 2129.4387 2129.4387 2132.5599 2134.3806 2133.6003 2130.7392 2131.5195 2135.1609 2133.0801 2135.6811 2160.6507 2520.1089 
14:32:59.413479 2046 2039 2132.0397 2132.82 2132.5599 2131.2594 2133.6003 2133.6003 2132.5599 2131.7796 2132.2998 2135.9412 2132.5599 2136.7215 2161.431 2517.5079 
14:32:59.421607 2048 2038 2131.2594 2134.1205 2131.5195 2130.9993 2133.3402 2130.219 2129.4387 2132.5599 2135.1609 2135.421 2134.9008 2135.6811 2160.1305 2516.9877 
14:32:59.429540 2045 2037 2129.6988 2134.6407 2129.6988 2131.5195 2132.0397 2127.0978 2129.4387 2132.0397 2134.9008 2135.1609 2132.0397 2131.2594 2157.7896 2515.6872 
14:32:59.437518 2044 2037 2130.9993 2134.1205 2130.9993 2131.2594 2132.0397 2130.219 2129.4387 2132.0397 2132.82 2135.6811 2128.9185 2130.7392 2159.8704 2514.9069 
14:32:59.445474 2044 2037 2128.6584 2134.1205 2132.5599 2132.5599 2132.0397 2133.6003 2129.9589 2133.0801 2134.9008 2135.421 2129.9589 2130.4791 2159.3502 2508.4044 
14:32:59.453865 2047 2039 2128.6584 2133.8604 2131.2594 2130.219 2128.6584 2131.2594 2126.5776 2131.2594 2136.2013 2134.9008 2130.219 2129.1786 2157.5295 2512.0458 
14:32:59.460543 2046 2040 2129.6988 2132.5599 2133.0801 2130.4791 2129.4387 2127.0978 2127.618 2130.9993 2132.82 2135.6811 2130.219 2129.4387 2157.0093 2513.0862 
14:32:59.468536 2045 2038 2133.6003 2132.82 2132.0397 2129.1786 2129.4387 2127.0978 2127.3579 2130.4791 2130.219 2136.2013 2132.5599 2134.9008 2159.6103 2513.8665 
14:32:59.476457 2044 2037 2131.7796 2132.82 2130.7392 2131.5195 2129.6988 2128.9185 2132.0397 2131.5195 2132.2998 2134.9008 2134.1205 2135.421 2159.3502 2509.1847 
14:32:59.484851 2045 2038 2133.8604 2130.4791 2131.7796 2130.219 2129.1786 2133.3402 2129.6988 2132.0397 2133.6003 2134.6407 2135.1609 2136.9816 2160.6507 2516.2074 
14:32:59.492501 2044 2038 2132.82 2130.4791 2132.82 2130.219 2132.5599 2138.2821 2133.0801 2133.3402 2132.2998 2136.2013 2134.3806 2138.5422 2161.1709 2516.4675 
14:32:59.500593 2046 2038 2134.1205 2131.5195 2130.7392 2128.1382 2130.4791 2134.6407 2131.7796 2133.6003 2130.9993 2135.1609 2133.0801 2139.8427 2163.5118 2518.0281 
14:32:59.508510 2047 2040 2132.0397 2132.5599 2131.7796 2130.9993 2131.5195 2126.5776 2133.0801 2132.5599 2133.3402 2134.1205 2133.3402 2136.9816 2161.431 2513.3463 
14:32:59.516557 2046 2039 2132.2998 2132.0397 2132.5599 2132.0397 2132.82 2127.0978 2133.6003 2129.9589 2135.1609 2137.2417 2134.9008 2138.8023 2160.1305 2518.5483 
14:32:59.523529 2044 2038 2130.9993 2133.0801 2132.5599 2132.5599 2133.6003 2135.1609 2135.9412 2129.9589 2134.9008 2137.7619 2130.7392 2137.5018 2161.1709 2521.4094 
14:32:59.531511 2043 2038 2132.5599 2134.3806 2132.2998 2130.7392 2132.5599 2139.5826 2130.7392 2131.2594 2135.421 2134.9008 2130.7392 2136.7215 2162.4714 2522.97 
14:32:59.539458 2045 2039 2132.82 2135.9412 2132.82 2131.7796 2133.6003 2136.2013 2129.6988 2131.5195 2135.421 2134.1205 2132.5599 2133.6003 2158.5699 2517.768 
14:32:59.547528 2046 2039 2132.5599 2134.6407 2133.0801 2132.5599 2132.0397 2127.618 2127.8781 2131.2594 2134.1205 2135.6811 2130.219 2132.5599 2158.3098 2517.768 
14:32:59.556074 2045 2038 2130.9993 2132.0397 2131.2594 2131.2594 2130.9993 2121.8958 2127.0978 2130.4791 2133.0801 2135.421 2129.4387 2132.2998 2159.8704 2516.7276 
14:32:59.563477 2046 2038 2129.1786 2132.2998 2130.219 2130.7392 2130.4791 2123.4564 2128.1382 2130.219 2133.8604 2135.1609 2132.0397 2130.4791 2157.7896 2511.2655 
14:32:59.571467 2043 2037 2130.9993 2134.1205 2131.7796 2131.5195 2129.4387 2132.2998 2128.3983 2130.4791 2132.82 2135.1609 2130.9993 2128.1382 2156.7492 2511.2655 
14:32:59.578519 2043 2037 2132.0397 2132.0397 2133.0801 2133.0801 2130.219 2136.7215 2130.219 2131.5195 2132.5599 2135.1609 2131.7796 2130.9993 2157.2694 2509.4448 
14:32:59.586947 2047 2038 2131.7796 2131.2594 2130.7392 2130.4791 2130.4791 2133.8604 2131.5195 2130.4791 2132.82 2135.421 2134.6407 2134.6407 2157.2694 2511.2655 
14:32:59.594471 2047 2038 2130.219 2132.82 2131.2594 2129.9589 2131.2594 2127.3579 2133.0801 2131.2594 2133.0801 2135.1609 2135.1609 2135.421 2158.5699 2510.7453 
14:32:59.602448 2045 2039 2134.3806 2129.6988 2130.7392 2129.1786 2130.9993 2124.4968 2128.6584 2130.7392 2131.7796 2134.6407 2134.3806 2138.022 2163.2517 2515.9473 
14:32:59.610522 2044 2038 2133.8604 2127.3579 2130.219 2130.7392 2133.3402 2127.8781 2132.2998 2130.9993 2131.2594 2134.9008 2135.9412 2139.3225 2162.4714 2516.4675 
14:32:59.618510 2045 2038 2134.1205 2132.2998 2130.219 2128.9185 2132.0397 2137.2417 2131.7796 2131.7796 2132.5599 2135.1609 2135.6811 2140.8831 2162.9916 2523.2301 
14:32:59.626460 2044 2037 2132.0397 2135.421 2131.7796 2132.82 2132.5599 2141.9235 2133.3402 2132.5599 2134.9008 2135.1609 2134.1205 2138.2821 2162.4714 2517.768 
14:32:59.634492 2046 2039 2134.1205 2130.9993 2130.7392 2132.5599 2132.0397 2135.1609 2130.7392 2130.7392 2133.6003 2135.9412 2134.1205 2136.2013 2162.7315 2518.8084 
14:32:59.642525 2045 2039 2130.7392 2131.2594 2130.9993 2132.0397 2132.82 2126.5776 2132.82 2130.219 2132.0397 2135.9412 2132.0397 2133.6003 2160.3906 2518.0281 
14:32:59.650529 2045 2038 2130.9993 2133.3402 2130.219 2129.6988 2131.2594 2126.5776 2131.2594 2130.9993 2134.3806 2135.6811 2132.82 2137.5018 2161.1709 2520.369 
14:32:59.657464 2045 2037 2130.9993 2132.0397 2130.219 2132.2998 2133.3402 2131.5195 2132.82 2131.5195 2135.1609 2136.2013 2131.7796 2133.0801 2158.5699 2514.6468 
14:32:59.665507 2043 2037 2131.7796 2132.2998 2130.9993 2132.5599 2133.6003 2133.8604 2128.1382 2131.5195 2132.82 2135.421 2128.6584 2128.3983 2157.5295 2516.7276 
14:32:59.673534 2046 2038 2129.1786 2134.9008 2131.7796 2132.2998 2132.82 2132.2998 2126.0574 2131.5195 2131.5195 2134.6407 2128.3983 2129.1786 2158.3098 2514.1266 
14:32:59.681525 2046 2038 2131.2594 2134.6407 2130.7392 2130.4791 2129.9589 2127.618 2125.7973 2130.4791 2132.2998 2135.9412 2133.0801 2132.5599 2159.0901 2512.566 
14:32:59.689497 2045 2038 2133.3402 2133.0801 2130.9993 2130.219 2129.6988 2124.4968 2128.6584 2129.9589 2132.0397 2135.6811 2131.7796 2132.0397 2158.3098 2512.3059 
14:32:59.697512 2046 2039 2132.2998 2130.219 2132.2998 2130.4791 2129.4387 2126.0574 2129.4387 2130.9993 2131.7796 2134.1205 2132.0397 2134.6407 2159.0901 2513.3463 
14:32:59.705554 2044 2038 2132.5599 2129.4387 2131.7796 2129.4387 2129.4387 2133.3402 2130.219 2131.2594 2131.7796 2134.9008 2135.421 2138.2821 2160.1305 2514.1266 
14:32:59.713527 2045 2040 2134.1205 2131.5195 2132.0397 2129.6988 2129.9589 2135.6811 2130.7392 2132.0397 2131.7796 2135.6811 2136.2013 2138.022 2160.1305 2512.566 
14:32:59.720462 2045 2039 2133.8604 2131.7796 2131.5195 2129.9589 2130.4791 2130.9993 2130.4791 2132.82 2132.0397 2135.1609 2134.1205 2136.9816 2159.8704 2513.3463 
14:32:59.728522 2045 2039 2131.2594 2129.9589 2131.2594 2130.4791 2132.82 2129.6988 2134.9008 2132.2998 2133.6003 2134.9008 2134.9008 2138.022 2160.1305 2514.3867 
14:32:59.736555 2044 2038 2133.6003 2130.9993 2130.219 2128.9185 2132.0397 2134.1205 2133.3402 2130.219 2133.0801 2134.9008 2134.9008 2140.3629 2162.9916 2521.4094 
14:32:59.744530 2045 2036 2132.82 2132.82 2131.5195 2132.5599 2133.3402 2135.421 2131.2594 2131.5195 2133.6003 2134.9008 2134.3806 2139.5826 2162.9916 2518.8084 
14:32:59.752475 2044 2036 2132.82 2133.6003 2131.2594 2131.2594 2133.6003 2136.2013 2130.219 2131.5195 2134.6407 2135.1609 2134.3806 2136.9816 2162.2113 2520.1089 
14:32:59.760531 2046 2039 2130.219 2135.421 2131.7796 2130.219 2133.3402 2134.3806 2134.1205 2131.2594 2134.3806 2134.3806 2132.5599 2134.3806 2160.3906 2518.2882 
14:32:59.768550 2045 2038 2131.7796 2133.3402 2131.2594 2128.9185 2130.219 2128.3983 2129.9589 2130.9993 2133.3402 2134.1205 2133.0801 2136.9816 2161.9512 2520.8892 
14:32:59.776515 2046 2039 2129.4387 2130.4791 2131.7796 2132.82 2132.5599 2124.4968 2130.4791 2131.2594 2134.3806 2134.9008 2132.0397 2132.82 2158.83 2514.3867 
14:32:59.784448 2045 2039 2129.9589 2133.0801 2131.5195 2132.5599 2132.5599 2127.618 2127.8781 2130.7392 2133.6003 2135.1609 2129.4387 2129.9589 2158.3098 2516.9877 
14:32:59.791524 2046 2037 2128.9185 2135.9412 2132.0397 2132.82 2130.7392 2131.5195 2128.6584 2131.5195 2132.5599 2134.6407 2128.3983 2129.4387 2158.5699 2511.7857 
14:32:59.799520 2046 2037 2130.219 2132.5599 2131.5195 2130.9993 2128.9185 2132.2998 2126.5776 2130.7392 2133.3402 2134.9008 2130.9993 2130.9993 2159.0901 2511.2655 
14:32:59.807524 2045 2037 2127.8781 2133.0801 2131.7796 2133.0801 2132.5599 2130.9993 2130.219 2130.219 2132.82 2135.6811 2131.7796 2128.3983 2158.0497 2510.2251 
14:32:59.815440 2045 2038 2130.4791 2134.3806 2131.2594 2133.0801 2131.7796 2127.8781 2128.6584 2132.0397 2131.7796 2135.421 2133.3402 2132.0397 2159.6103 2512.8261 
14:32:59.823741 2045 2039 2134.1205 2130.4791 2130.7392 2129.9589 2129.9589 2127.8781 2129.9589 2133.0801 2131.7796 2134.6407 2134.3806 2136.9816 2159.6103 2510.7453 
14:32:59.831497 2045 2040 2134.9008 2128.3983 2130.9993 2127.618 2128.3983 2131.2594 2129.6988 2132.2998 2132.82 2135.1609 2135.9412 2140.1028 2161.1709 2513.8665 
14:32:59.839555 2044 2038 2132.5599 2133.3402 2132.2998 2130.4791 2130.4791 2134.3806 2130.4791 2131.5195 2133.6003 2135.1609 2136.4614 2137.5018 2162.9916 2515.9473 
14:32:59.847438 2044 2039 2132.5599 2132.82 2131.5195 2132.0397 2132.2998 2133.8604 2132.82 2132.82 2133.6003 2134.9008 2135.6811 2137.2417 2163.2517 2515.6872 
14:32:59.855862 2045 2038 2133.6003 2130.219 2130.219 2130.9993 2132.82 2133.3402 2133.3402 2132.5599 2132.2998 2135.1609 2133.3402 2139.3225 2162.7315 2517.768 
14:32:59.862480 2046 2037 2132.82 2132.82 2131.7796 2132.82 2133.6003 2133.3402 2132.0397 2131.5195 2133.3402 2135.1609 2134.6407 2139.0624 2162.9916 2518.2882 
14:32:59.870524 2047 2039 2134.1205 2134.9008 2132.2998 2132.2998 2133.3402 2131.2594 2130.4791 2130.219 2135.1609 2135.421 2133.8604 2135.9412 2161.9512 2519.3286 
14:32:59.878461 2045 2037 2132.2998 2133.6003 2132.82 2132.82 2134.1205 2128.6584 2134.3806 2131.7796 2134.6407 2135.1609 2130.219 2134.1205 2160.1305 2515.6872 
14:32:59.886713 2045 2036 2132.0397 2133.0801 2132.2998 2131.5195 2132.0397 2129.1786 2131.2594 2132.5599 2133.3402 2134.6407 2130.219 2135.421 2161.1709 2518.8084 
14:32:59.894601 2045 2037 2130.9993 2133.0801 2132.82 2132.5599 2131.5195 2130.219 2128.1382 2133.0801 2134.3806 2135.421 2130.9993 2132.0397 2159.6103 2515.6872 
14:32:59.902512 2044 2037 2133.0801 2132.82 2131.7796 2130.4791 2130.219 2132.2998 2124.4968 2132.0397 2134.6407 2136.2013 2130.7392 2132.2998 2159.6103 2518.0281 
14:32:59.910454 2045 2037 2129.1786 2133.3402 2132.82 2131.5195 2130.9993 2131.2594 2127.8781 2131.7796 2133.6003 2135.421 2131.7796 2132.2998 2158.0497 2512.0458 
14:32:59.918550 2046 2036 2131.2594 2133.0801 2132.0397 2130.9993 2128.9185 2127.618 2126.3175 2132.0397 2132.5599 2134.3806 2132.5599 2133.0801 2158.0497 2514.1266 
14:32:59.925495 2045 2038 2132.0397 2132.82 2131.7796 2132.2998 2129.9589 2126.0574 2129.1786 2133.8604 2132.82 2134.3806 2131.5195 2131.2594 2157.2694 2509.965 
14:32:59.933543 2046 2038 2133.0801 2131.5195 2130.9993 2129.4387 2129.6988 2128.6584 2128.1382 2131.7796 2132.82 2134.6407 2133.8604 2133.6003 2158.3098 2511.0054 
14:32:59.941477 2046 2037 2130.4791 2132.0397 2132.2998 2130.7392 2130.4791 2132.2998 2132.0397 2130.4791 2133.8604 2133.8604 2134.1205 2134.1205 2158.0497 2508.6645 
14:32:59.949535 2045 2037 2132.82 2132.2998 2132.2998 2130.9993 2128.6584 2133.0801 2130.9993 2132.82 2134.3806 2133.3402 2134.3806 2137.2417 2159.6103 2513.8665 
14:32:59.957703 2044 2038 2133.0801 2131.7796 2131.7796 2129.6988 2131.2594 2133.0801 2132.0397 2134.1205 2133.3402 2134.1205 2135.421 2137.5018 2160.6507 2516.4675 
14:32:59.965482 2046 2038 2133.3402 2130.9993 2129.9589 2128.3983 2132.5599 2133.6003 2132.0397 2132.2998 2133.0801 2135.421 2135.6811 2138.2821 2162.2113 2522.1897 
14:32:59.973453 2047 2038 2132.0397 2132.0397 2129.6988 2131.2594 2132.2998 2133.6003 2134.1205 2132.0397 2133.8604 2134.9008 2133.3402 2137.7619 2162.4714 2521.6695 
14:32:59.981538 2046 2039 2132.0397 2131.2594 2131.5195 2132.0397 2130.4791 2132.82 2132.5599 2132.82 2135.421 2135.9412 2135.6811 2139.0624 2162.7315 2519.3286 
14:32:59.988873 2045 2038 2132.5599 2130.9993 2131.2594 2131.2594 2132.0397 2133.3402 2129.9589 2131.5195 2135.6811 2136.9816 2134.6407 2135.9412 2162.2113 2519.5887 
14:32:59.996491 2044 2039 2131.5195 2132.82 2130.4791 2131.7796 2133.8604 2131.5195 2129.4387 2132.2998 2133.8604 2135.1609 2131.5195 2134.9008 2161.6911 2520.369 
14:33:00.004454 2043 2038 2130.7392 2133.3402 2131.2594 2130.4791 2133.0801 2130.219 2130.219 2132.82 2132.0397 2133.8604 2132.2998 2134.9008 2160.6507 2518.0281 
14:33:00.012505 2044 2038 2128.1382 2132.5599 2132.5599 2131.5195 2131.5195 2129.9589 2130.7392 2132.0397 2133.8604 2134.3806 2131.7796 2130.4791 2158.3098 2513.6064 
14:33:00.020561 2044 2038 2129.9589 2133.3402 2130.9993 2130.9993 2130.219 2129.6988 2127.3579 2131.2594 2134.9008 2134.6407 2128.3983 2128.6584 2158.5699 2516.9877 
14:33:00.028457 2045 2037 2130.219 2133.8604 2131.5195 2132.0397 2131.2594 2127.618 2128.3983 2131.7796 2133.3402 2133.8604 2129.9589 2130.9993 2158.3098 2510.4852 
14:33:00.036526 2046 2038 2131.5195 2132.0397 2132.2998 2130.7392 2129.1786 2128.1382 2126.8377 2129.9589 2131.7796 2134.1205 2133.6003 2133.0801 2157.7896 2509.4448 
14:33:00.044569 2046 2039 2129.9589 2130.7392 2133.0801 2131.7796 2128.9185 2128.9185 2128.1382 2130.7392 2131.5195 2134.9008 2133.6003 2131.7796 2157.5295 2509.1847 
14:33:00.052554 2045 2037 2133.0801 2129.4387 2130.9993 2129.4387 2128.1382 2129.4387 2126.5776 2131.5195 2132.5599 2134.6407 2134.3806 2133.3402 2159.0901 2515.6872 
14:33:00.059471 2044 2036 2131.7796 2128.9185 2131.2594 2131.7796 2129.9589 2132.0397 2131.5195 2132.0397 2134.1205 2133.8604 2135.1609 2134.1205 2158.3098 2511.2655 
14:33:00.067589 2044 2036 2133.0801 2129.1786 2132.82 2132.2998 2128.6584 2133.0801 2129.4387 2132.5599 2132.82 2134.3806 2135.421 2138.022 2160.9108 2513.6064 
14:33:00.075525 2045 2037 2132.0397 2130.4791 2133.3402 2132.82 2131.5195 2131.7796 2132.2998 2133.8604 2132.5599 2134.6407 2134.9008 2137.5018 2161.431 2513.6064 
14:33:00.083550 2046 2039 2133.6003 2132.0397 2131.2594 2129.9589 2131.5195 2131.7796 2132.82 2133.3402 2134.9008 2134.1205 2135.6811 2138.8023 2161.431 2518.2882 
14:33:00.091455 2046 2037 2133.0801 2133.8604 2132.2998 2132.0397 2132.5599 2132.5599 2134.6407 2133.3402 2135.421 2134.1205 2134.3806 2137.7619 2160.6507 2514.9069 
14:33:00.099512 2046 2038 2134.1205 2133.6003 2132.0397 2132.5599 2132.0397 2133.3402 2131.7796 2131.7796 2133.3402 2136.2013 2133.6003 2138.022 2162.7315 2518.2882 
14:33:00.107524 2044 2038 2131.5195 2133.0801 2129.9589 2131.7796 2132.2998 2135.6811 2131.2594 2131.2594 2133.0801 2136.2013 2131.7796 2135.1609 2160.9108 2521.1493 
14:33:00.115513 2044 2038 2131.5195 2132.5599 2130.219 2130.7392 2130.4791 2136.2013 2129.1786 2133.0801 2133.3402 2134.6407 2132.0397 2136.7215 2160.6507 2521.9296 
14:33:00.122497 2045 2037 2133.6003 2133.6003 2132.0397 2132.5599 2130.9993 2131.7796 2130.219 2132.2998 2132.82 2134.3806 2132.5599 2136.7215 2160.9108 2516.7276 
14:33:00.130517 2045 2038 2133.6003 2133.3402 2132.5599 2132.5599 2131.7796 2126.5776 2129.1786 2130.4791 2132.2998 2135.1609 2130.7392 2132.5599 2160.1305 2515.9473 
14:33:00.138563 2044 2038 2130.9993 2132.2998 2132.2998 2130.9993 2130.4791 2127.3579 2126.8377 2131.2594 2132.0397 2134.9008 2128.3983 2129.9589 2159.3502 2515.9473 
14:33:00.146542 2045 2037 2128.9185 2131.5195 2132.0397 2132.5599 2129.9589 2130.9993 2127.8781 2133.3402 2133.6003 2134.3806 2130.219 2130.9993 2158.3098 2510.2251 
14:33:00.154517 2045 2037 2130.7392 2133.3402 2130.7392 2132.0397 2130.219 2134.9008 2128.6584 2132.5599 2133.3402 2135.1609 2131.7796 2132.0397 2157.7896 2511.2655 
14:33:00.162810 2044 2038 2130.4791 2134.1205 2132.0397 2132.5599 2130.7392 2133.8604 2130.4791 2132.2998 2132.0397 2135.421 2132.0397 2131.7796 2158.5699 2509.965 
14:33:00.170497 2046 2038 2131.5195 2131.5195 2131.7796 2131.2594 2128.1382 2130.4791 2128.6584 2132.82 2132.2998 2134.6407 2132.82 2134.1205 2159.6103 2511.0054 
14:33:00.178512 2045 2038 2130.7392 2130.219 2130.7392 2131.7796 2129.1786 2127.0978 2130.7392 2132.2998 2132.82 2133.3402 2133.3402 2137.7619 2158.5699 2510.7453 
14:33:00.186456 2044 2038 2133.0801 2131.5195 2130.219 2128.9185 2129.9589 2128.9185 2129.4387 2129.6988 2131.7796 2133.8604 2134.1205 2140.3629 2161.9512 2519.0685 
14:33:00.193908 2044 2037 2132.0397 2131.2594 2131.5195 2130.4791 2131.5195 2133.6003 2132.5599 2130.7392 2133.6003 2135.1609 2135.1609 2137.5018 2162.4714 2517.2478 
14:33:00.201496 2044 2038 2134.6407 2128.9185 2130.9993 2129.6988 2130.4791 2135.6811 2129.6988 2132.0397 2134.9008 2134.6407 2134.6407 2138.022 2161.431 2520.369 
14:33:00.209506 2045 2038 2133.0801 2132.0397 2132.2998 2131.5195 2134.1205 2135.1609 2131.5195 2130.9993 2133.6003 2133.8604 2132.82 2138.2821 2160.9108 2516.9877 
14:33:00.217453 2044 2038 2133.0801 2133.8604 2132.0397 2130.4791 2133.6003 2132.2998 2130.9993 2129.4387 2134.6407 2135.421 2134.6407 2137.7619 2163.2517 2519.0685 
14:33:00.225583 2045 2038 2131.5195 2131.5195 2132.2998 2132.5599 2132.0397 2127.618 2132.82 2131.5195 2135.9412 2135.421 2132.2998 2132.2998 2161.431 2515.6872 
14:33:00.233444 2045 2038 2133.0801 2130.9993 2132.0397 2132.0397 2132.0397 2128.1382 2129.6988 2131.5195 2134.3806 2134.1205 2129.9589 2133.3402 2161.6911 2518.8084 
14:33:00.241524 2045 2038 2130.219 2133.6003 2132.0397 2132.2998 2134.6407 2132.82 2131.2594 2130.219 2134.3806 2134.9008 2129.9589 2131.7796 2159.0901 2515.6872 
14:33:00.249527 2045 2038 2129.6988 2132.82 2132.0397 2131.5195 2131.2594 2130.219 2127.8781 2130.7392 2135.421 2135.421 2129.9589 2129.9589 2156.7492 2516.2074 
14:33:00.256575 2045 2038 2129.6988 2132.5599 2132.2998 2132.5599 2130.219 2126.0574 2126.5776 2131.2594 2133.0801 2135.421 2128.1382 2129.6988 2156.7492 2513.8665 
14:33:00.264622 2045 2037 2130.4791 2133.3402 2132.0397 2131.7796 2129.4387 2126.3175 2125.5372 2130.4791 2131.2594 2136.2013 2130.4791 2133.0801 2159.3502 2514.9069 
14:33:00.272572 2044 2037 2130.4791 2133.8604 2132.5599 2130.219 2128.3983 2127.0978 2127.8781 2129.6988 2132.5599 2135.6811 2131.2594 2132.82 2159.3502 2514.6468 
14:33:00.280459 2044 2038 2131.2594 2132.5599 2133.6003 2131.2594 2129.4387 2126.5776 2129.4387 2130.9993 2133.8604 2134.6407 2132.82 2133.0801 2157.5295 2510.4852 
14:33:00.288640 2045 2037 2132.5599 2130.9993 2132.0397 2131.2594 2131.7796 2131.5195 2129.9589 2132.2998 2133.8604 2135.421 2135.1609 2134.9008 2158.83 2510.4852 
14:33:00.296535 2047 2038 2132.5599 2130.4791 2130.7392 2131.7796 2132.2998 2133.8604 2132.2998 2132.5599 2134.1205 2135.6811 2135.1609 2136.7215 2161.6911 2512.566 
14:33:00.304532 2047 2037 2133.8604 2132.82 2130.7392 2130.9993 2130.9993 2130.219 2130.4791 2130.7392 2133.0801 2134.1205 2133.6003 2137.2417 2161.431 2515.9473 
14:33:00.312455 2046 2037 2132.82 2134.3806 2132.0397 2132.0397 2132.2998 2129.4387 2133.3402 2131.2594 2132.82 2135.1609 2134.9008 2136.4614 2160.3906 2514.9069 
14:33:00.320556 2045 2038 2134.6407 2132.5599 2130.9993 2130.219 2132.0397 2133.8604 2132.2998 2131.2594 2133.8604 2136.7215 2135.9412 2139.8427 2163.7719 2522.1897 
14:33:00.327529 2043 2038 2133.6003 2131.7796 2131.5195 2131.7796 2134.3806 2136.2013 2133.3402 2130.7392 2135.1609 2136.4614 2134.9008 2141.4033 2164.032 2521.4094 
14:33:00.335442 2046 2038 2135.9412 2133.6003 2130.9993 2129.9589 2133.0801 2136.2013 2130.4791 2129.4387 2133.3402 2134.9008 2134.1205 2138.5422 2162.4714 2522.7099 
14:33:00.343534 2046 2039 2133.8604 2135.1609 2132.0397 2130.9993 2132.5599 2130.9993 2131.2594 2131.2594 2132.0397 2134.9008 2131.5195 2132.82 2159.6103 2518.8084 
14:33:00.351526 2046 2038 2132.82 2133.0801 2131.7796 2130.4791 2131.7796 2125.5372 2128.1382 2131.5195 2132.0397 2136.2013 2130.9993 2137.2417 2161.1709 2520.6291 
14:33:00.367461 2043 2038 2129.1786 2132.5599 2132.0397 2132.2998 2130.4791 2133.6003 2127.0978 2132.82 2132.82 2137.2417 2130.219 2129.6988 2158.83 2512.566 
14:33:00.375509 2046 2038 2128.1382 2133.3402 2133.3402 2132.82 2131.7796 2137.7619 2126.3175 2132.0397 2132.5599 2136.2013 2128.1382 2126.3175 2158.5699 2511.2655 
14:33:00.382520 2046 2039 2130.7392 2131.5195 2132.82 2130.219 2130.4791 2133.3402 2126.3175 2129.9589 2132.82 2135.421 2131.2594 2130.9993 2159.8704 2510.7453 
14:33:00.390521 2047 2039 2131.7796 2130.9993 2130.4791 2129.9589 2129.1786 2123.9766 2130.219 2130.9993 2133.6003 2135.1609 2132.5599 2132.0397 2158.0497 2508.1443 
14:33:00.398442 2046 2039 2132.5599 2130.219 2130.219 2129.9589 2129.1786 2120.0751 2127.618 2133.6003 2133.6003 2134.1205 2133.0801 2134.1205 2158.0497 2513.6064 
14:33:00.406501 2044 2038 2132.5599 2129.6988 2132.0397 2131.5195 2130.4791 2128.6584 2128.1382 2132.5599 2132.0397 2134.1205 2134.6407 2136.4614 2158.5699 2514.6468 
14:33:00.414527 2044 2038 2134.6407 2130.219 2131.7796 2131.2594 2128.3983 2138.022 2128.6584 2131.7796 2132.82 2136.2013 2136.9816 2139.0624 2160.9108 2513.8665 
14:33:00.422578 2044 2037 2134.3806 2130.7392 2130.7392 2130.7392 2129.9589 2138.2821 2129.6988 2133.0801 2135.1609 2136.9816 2134.9008 2137.5018 2162.2113 2515.6872 
14:33:00.430443 2046 2038 2131.7796 2131.2594 2132.0397 2132.2998 2133.3402 2131.7796 2133.3402 2134.1205 2134.9008 2136.2013 2134.1205 2137.2417 2160.3906 2516.9877 
14:33:00.438971 2046 2038 2132.82 2132.2998 2132.2998 2132.0397 2132.0397 2126.0574 2134.6407 2133.0801 2132.0397 2135.6811 2134.3806 2138.022 2160.1305 2518.2882 
14:33:00.446502 2046 2039 2132.5599 2133.0801 2131.7796 2132.2998 2132.82 2126.3175 2134.6407 2132.2998 2133.8604 2135.1609 2134.3806 2137.7619 2161.6911 2515.4271 
14:33:00.453528 2044 2037 2132.5599 2133.3402 2130.9993 2131.2594 2134.1205 2132.82 2131.2594 2130.9993 2135.6811 2136.2013 2133.0801 2136.7215 2162.9916 2519.5887 
14:33:00.461459 2043 2036 2129.1786 2133.6003 2132.0397 2133.6003 2133.0801 2138.022 2132.2998 2132.0397 2133.8604 2136.4614 2128.9185 2132.0397 2160.6507 2519.3286 
14:33:00.469872 2042 2037 2130.7392 2133.8604 2132.2998 2132.0397 2130.7392 2137.2417 2128.9185 2132.82 2132.0397 2134.3806 2127.8781 2132.0397 2160.6507 2519.5887 
14:33:00.477505 2046 2038 2130.9993 2134.3806 2133.3402 2131.2594 2132.2998 2129.1786 2128.9185 2132.5599 2133.3402 2135.1609 2131.5195 2132.0397 2159.8704 2513.6064 
14:33:00.485517 2048 2038 2133.0801 2134.6407 2130.7392 2128.3983 2130.219 2123.1963 2125.5372 2130.7392 2133.8604 2137.5018 2132.5599 2133.8604 2161.431 2519.0685 
14:33:00.493452 2048 2038 2129.1786 2132.5599 2130.9993 2131.2594 2130.9993 2123.4564 2128.6584 2131.7796 2132.82 2136.4614 2130.219 2130.9993 2160.1305 2512.3059 
14:33:00.502084 2045 2038 2130.219 2130.9993 2131.2594 2131.5195 2130.4791 2129.1786 2127.618 2130.9993 2132.82 2134.3806 2132.0397 2130.7392 2159.0901 2509.965 
14:33:00.509507 2043 2038 2130.9993 2132.5599 2131.5195 2132.2998 2129.9589 2134.9008 2129.6988 2131.2594 2133.3402 2135.1609 2133.8604 2129.4387 2158.0497 2507.6241 
14:33:00.517518 2045 2038 2133.0801 2131.5195 2132.2998 2130.4791 2127.618 2135.1609 2127.618 2132.5599 2132.2998 2135.9412 2133.0801 2132.0397 2160.3906 2511.2655 
14:33:00.524461 2046 2038 2130.9993 2129.9589 2133.6003 2131.2594 2130.4791 2130.9993 2130.7392 2133.0801 2132.2998 2134.6407 2131.7796 2134.3806 2160.1305 2510.2251 
14:33:00.532673 2046 2039 2132.5599 2128.9185 2132.0397 2130.219 2130.7392 2126.0574 2130.4791 2132.5599 2133.8604 2134.1205 2134.6407 2138.5422 2160.3906 2516.4675 
14:33:00.540609 2046 2038 2133.8604 2128.9185 2130.4791 2131.7796 2130.9993 2127.0978 2131.5195 2133.0801 2133.6003 2134.9008 2135.421 2138.5422 2160.3906 2517.5079 
14:33:00.548523 2044 2037 2134.1205 2128.6584 2130.7392 2130.4791 2131.7796 2132.0397 2130.9993 2132.2998 2132.5599 2135.421 2134.6407 2139.5826 2161.6911 2520.8892 
14:33:00.556457 2044 2037 2133.3402 2131.7796 2130.7392 2128.3983 2132.82 2136.9816 2130.9993 2130.4791 2132.5599 2134.6407 2133.3402 2137.7619 2162.7315 2522.7099 
14:33:00.564525 2045 2038 2133.3402 2133.6003 2131.2594 2130.9993 2131.5195 2136.7215 2131.5195 2132.5599 2133.3402 2134.9008 2135.1609 2137.7619 2163.2517 2519.3286 
14:33:00.573059 2044 2038 2132.5599 2131.7796 2130.9993 2132.5599 2130.9993 2131.2594 2130.9993 2133.8604 2133.8604 2135.421 2134.3806 2136.7215 2161.431 2517.2478 
14:33:00.579460 2045 2039 2129.9589 2131.7796 2130.9993 2131.7796 2133.8604 2126.5776 2129.9589 2133.6003 2134.3806 2135.6811 2130.7392 2133.8604 2159.8704 2517.2478 
14:33:00.587473 2047 2039 2129.9589 2134.1205 2130.9993 2131.5195 2133.3402 2128.1382 2129.1786 2133.0801 2133.8604 2136.2013 2130.219 2132.2998 2160.6507 2517.768 
14:33:00.595511 2047 2039 2127.8781 2134.3806 2132.0397 2133.3402 2129.9589 2130.219 2130.219 2132.2998 2134.1205 2135.421 2130.9993 2131.7796 2159.0901 2512.8261 
14:33:00.603943 2046 2038 2129.4387 2132.82 2131.5195 2129.4387 2128.1382 2132.2998 2125.017 2129.9589 2134.1205 2134.6407 2128.9185 2130.4791 2158.83 2517.5079 
14:33:00.611464 2044 2038 2130.9993 2132.82 2131.7796 2131.5195 2130.7392 2132.5599 2126.3175 2130.219 2132.2998 2135.421 2129.9589 2128.9185 2159.3502 2512.566 
14:33:00.619429 2044 2038 2133.3402 2133.0801 2130.4791 2131.5195 2128.6584 2129.6988 2128.1382 2132.0397 2131.2594 2135.421 2133.0801 2133.3402 2160.6507 2511.7857 
14:33:00.627509 2045 2039 2129.1786 2130.9993 2131.7796 2130.9993 2128.9185 2126.5776 2130.7392 2133.3402 2133.3402 2134.6407 2134.1205 2134.1205 2158.5699 2509.4448 
14:33:00.635566 2048 2039 2131.2594 2130.4791 2131.2594 2128.9185 2129.6988 2127.3579 2126.3175 2131.2594 2133.6003 2135.421 2134.6407 2134.3806 2159.3502 2514.3867 
14:33:00.643449 2047 2039 2131.5195 2132.5599 2132.2998 2131.7796 2130.9993 2128.9185 2131.2594 2131.2594 2133.3402 2135.9412 2134.6407 2135.421 2159.6103 2511.5256 
14:33:00.650430 2043 2038 2132.5599 2132.0397 2132.0397 2130.9993 2128.9185 2130.9993 2132.2998 2133.3402 2132.82 2134.3806 2135.1609 2139.5826 2161.9512 2515.167 
14:33:00.658504 2043 2037 2130.9993 2131.7796 2132.0397 2131.7796 2132.0397 2135.421 2133.8604 2133.6003 2132.5599 2133.8604 2134.6407 2137.7619 2160.9108 2513.6064 
14:33:00.666510 2043 2038 2133.6003 2132.2998 2132.2998 2130.4791 2133.0801 2136.2013 2132.2998 2130.7392 2132.82 2134.9008 2135.6811 2138.022 2162.7315 2518.0281 
14:33:00.674442 2045 2039 2133.6003 2133.3402 2133.0801 2131.5195 2132.82 2131.5195 2135.1609 2131.2594 2134.9008 2135.421 2133.6003 2138.022 2164.2921 2518.5483 
14:33:00.682493 2046 2038 2134.3806 2133.6003 2131.5195 2131.5195 2131.7796 2126.3175 2131.7796 2132.5599 2134.3806 2135.1609 2132.82 2139.3225 2163.7719 2519.3286 
14:33:00.690509 2046 2038 2132.0397 2134.6407 2131.7796 2132.5599 2133.0801 2127.618 2129.4387 2131.2594 2132.5599 2135.421 2131.2594 2135.9412 2159.3502 2516.9877 
14:33:00.698507 2046 2036 2132.0397 2133.8604 2132.2998 2133.3402 2133.0801 2133.6003 2128.3983 2131.5195 2133.3402 2135.9412 2131.2594 2133.6003 2160.1305 2519.0685 
14:33:00.706441 2044 2038 2132.82 2133.3402 2130.4791 2131.7796 2132.82 2136.7215 2127.618 2132.82 2133.3402 2134.6407 2131.7796 2133.8604 2160.9108 2516.7276 
14:33:00.713478 2046 2037 2130.4791 2134.6407 2131.5195 2130.7392 2131.2594 2130.4791 2126.0574 2132.5599 2132.82 2134.6407 2130.219 2132.82 2158.5699 2511.5256 
14:33:00.721552 2046 2038 2130.4791 2135.421 2132.5599 2130.9993 2130.219 2123.4564 2126.3175 2131.2594 2133.6003 2135.421 2128.1382 2130.7392 2158.3098 2513.0862 
14:33:00.729510 2046 2039 2131.2594 2134.1205 2130.7392 2132.0397 2130.4791 2123.4564 2129.1786 2132.2998 2132.82 2134.9008 2130.219 2130.219 2157.2694 2511.0054 
14:33:00.737506 2044 2037 2131.5195 2132.82 2130.219 2130.219 2129.9589 2129.6988 2127.3579 2132.2998 2131.2594 2134.6407 2131.7796 2130.219 2156.229 2511.2655 
14:33:00.745520 2044 2037 2129.6988 2132.82 2133.3402 2131.7796 2131.2594 2135.6811 2128.9185 2132.2998 2133.8604 2134.9008 2131.7796 2130.4791 2158.3098 2508.9246 
14:33:00.753501 2044 2038 2133.3402 2133.0801 2132.82 2129.9589 2129.9589 2137.7619 2127.8781 2131.5195 2133.8604 2134.9008 2134.1205 2135.1609 2160.9108 2513.0862 
14:33:00.761517 2045 2039 2132.82 2133.3402 2132.0397 2130.219 2129.9589 2132.2998 2131.5195 2133.0801 2131.2594 2134.9008 2136.4614 2138.2821 2159.3502 2512.566 
14:33:00.769489 2045 2038 2134.9008 2131.2594 2131.7796 2128.6584 2129.9589 2125.2771 2129.4387 2134.1205 2130.7392 2133.8604 2135.6811 2139.8427 2160.9108 2518.5483 
14:33:00.776517 2044 2039 2133.3402 2129.9589 2132.2998 2130.219 2132.5599 2126.5776 2132.5599 2133.8604 2133.0801 2133.0801 2135.421 2138.5422 2161.1709 2516.4675 
14:33:00.784456 2045 2038 2133.6003 2131.2594 2130.9993 2129.4387 2130.9993 2134.3806 2131.5195 2133.3402 2134.9008 2135.9412 2135.6811 2139.3225 2162.2113 2520.1089 
14:33:00.792540 2044 2037 2131.2594 2133.8604 2132.5599 2132.2998 2134.1205 2138.2821 2132.82 2133.8604 2134.9008 2137.7619 2132.5599 2136.9816 2161.6911 2517.5079 
14:33:00.800456 2045 2037 2132.5599 2134.3806 2132.2998 2131.2594 2135.1609 2134.9008 2131.2594 2131.5195 2132.2998 2135.6811 2133.3402 2135.9412 2162.2113 2518.5483 
14:33:00.808528 2046 2038 2131.2594 2134.9008 2130.9993 2130.9993 2134.1205 2128.3983 2133.8604 2130.4791 2131.2594 2135.1609 2133.3402 2132.2998 2159.8704 2516.2074 
14:33:00.816455 2046 2039 2132.0397 2135.1609 2131.2594 2131.2594 2131.5195 2126.5776 2129.9589 2130.4791 2133.8604 2136.2013 2131.7796 2134.9008 2160.6507 2520.8892 
14:33:00.824542 2043 2038 2130.7392 2134.6407 2132.0397 2132.5599 2132.2998 2130.7392 2127.8781 2130.7392 2134.9008 2136.2013 2129.9589 2134.1205 2159.6103 2516.7276 
14:33:00.832513 2043 2037 2131.7796 2133.6003 2130.9993 2130.4791 2130.9993 2134.9008 2127.3579 2131.2594 2134.1205 2135.6811 2129.4387 2131.2594 2158.5699 2514.6468 
14:33:00.840560 2043 2038 2131.7796 2133.3402 2130.7392 2130.9993 2132.0397 2134.6407 2128.6584 2132.5599 2133.8604 2135.1609 2128.9185 2130.7392 2158.5699 2513.8665 
14:33:00.847450 2046 2039 2130.4791 2133.6003 2132.0397 2132.2998 2130.9993 2128.6584 2126.3175 2133.0801 2133.6003 2135.1609 2131.2594 2132.5599 2158.3098 2512.8261 
14:33:00.855950 2046 2040 2130.219 2134.3806 2131.7796 2130.9993 2128.3983 2124.4968 2127.618 2132.5599 2133.0801 2135.9412 2132.0397 2130.9993 2157.7896 2512.0458 
14:33:00.863474 2045 2040 2130.219 2132.0397 2131.5195 2131.2594 2129.6988 2126.3175 2131.2594 2132.5599 2133.0801 2135.9412 2133.6003 2133.0801 2158.83 2511.0054 
14:33:00.871704 2046 2038 2130.9993 2131.2594 2131.5195 2131.5195 2131.7796 2132.2998 2129.9589 2131.7796 2133.0801 2134.9008 2134.3806 2136.9816 2159.6103 2512.0458 
14:33:00.879508 2047 2039 2131.7796 2133.6003 2132.2998 2131.7796 2130.9993 2134.3806 2130.9993 2132.82 2133.0801 2134.9008 2134.1205 2136.7215 2158.83 2511.2655 
14:33:00.887820 2047 2038 2135.421 2132.5599 2131.5195 2129.9589 2129.6988 2133.6003 2131.2594 2132.5599 2131.7796 2136.2013 2134.3806 2137.2417 2161.431 2517.5079 
14:33:00.895446 2046 2036 2133.8604 2129.6988 2130.9993 2131.5195 2132.82 2132.2998 2134.3806 2133.0801 2132.82 2135.9412 2135.1609 2138.022 2162.2113 2518.5483 
14:33:00.903547 2046 2038 2134.3806 2131.5195 2130.4791 2129.9589 2133.0801 2133.3402 2131.2594 2133.3402 2133.8604 2134.9008 2134.3806 2138.022 2161.6911 2521.9296 
14:33:00.910521 2044 2037 2132.5599 2134.3806 2132.0397 2132.5599 2134.1205 2133.8604 2132.0397 2133.8604 2133.6003 2134.6407 2134.1205 2136.2013 2161.431 2517.5079 
14:33:00.918460 2046 2037 2133.8604 2133.3402 2131.5195 2131.7796 2132.0397 2133.6003 2129.1786 2132.2998 2134.1205 2135.421 2135.421 2136.9816 2163.5118 2520.1089 
14:33:00.926516 2046 2038 2130.9993 2133.3402 2132.5599 2132.82 2132.5599 2131.2594 2131.2594 2132.0397 2134.6407 2135.1609 2131.5195 2133.6003 2160.9108 2517.5079 
14:33:00.934476 2044 2039 2131.7796 2133.6003 2132.0397 2131.5195 2130.9993 2129.1786 2128.3983 2130.7392 2133.3402 2135.1609 2130.4791 2135.1609 2161.6911 2520.1089 
14:33:00.942513 2045 2038 2128.6584 2134.9008 2130.7392 2132.82 2131.7796 2129.9589 2129.4387 2130.4791 2134.6407 2135.1609 2131.2594 2133.8604 2160.3906 2511.7857 
14:33:00.950494 2045 2036 2128.9185 2135.421 2130.219 2132.0397 2130.4791 2131.5195 2127.618 2132.0397 2135.6811 2136.7215 2128.9185 2131.2594 2157.7896 2511.2655 
14:33:00.958513 2046 2037 2128.9185 2135.6811 2132.5599 2133.3402 2131.7796 2132.0397 2128.3983 2133.0801 2132.5599 2136.7215 2126.5776 2128.3983 2156.4891 2511.0054 
14:33:00.966505 2045 2038 2130.7392 2132.5599 2132.0397 2131.5195 2129.9589 2129.6988 2126.0574 2131.7796 2131.2594 2135.1609 2130.219 2130.9993 2159.3502 2511.5256 
14:33:00.974547 2044 2037 2130.4791 2129.6988 2130.7392 2130.9993 2128.6584 2126.5776 2127.8781 2131.5195 2132.82 2134.3806 2131.7796 2132.2998 2158.0497 2509.1847 
14:33:00.981449 2045 2037 2132.5599 2128.9185 2131.5195 2131.5195 2128.6584 2128.1382 2127.618 2132.2998 2133.0801 2134.9008 2133.6003 2135.421 2158.0497 2512.8261 
14:33:00.989887 2045 2037 2132.82 2130.9993 2132.0397 2130.9993 2130.4791 2134.1205 2129.9589 2132.5599 2132.5599 2134.1205 2134.3806 2136.9816 2161.1709 2515.167 
14:33:00.997549 2043 2039 2131.2594 2131.2594 2130.9993 2129.9589 2129.6988 2133.8604 2132.82 2132.2998 2132.5599 2134.1205 2133.6003 2139.3225 2162.4714 2514.6468 
14:33:01.005692 2044 2038 2133.0801 2130.9993 2131.2594 2130.219 2129.6988 2129.6988 2132.2998 2130.4791 2132.0397 2133.3402 2134.1205 2138.5422 2160.1305 2515.4271 
14:33:01.013499 2046 2039 2132.5599 2132.2998 2132.2998 2130.9993 2132.82 2128.9185 2133.3402 2131.7796 2132.82 2133.3402 2136.2013 2136.2013 2159.3502 2514.6468 
14:33:01.021959 2045 2039 2131.5195 2133.6003 2130.7392 2129.6988 2132.5599 2131.5195 2133.0801 2133.6003 2132.82 2135.1609 2132.5599 2135.9412 2162.4714 2517.5079 
14:33:01.029511 2046 2037 2130.7392 2133.3402 2131.2594 2133.0801 2132.5599 2133.8604 2134.1205 2133.0801 2131.7796 2135.1609 2131.2594 2136.9816 2162.4714 2515.9473 
14:33:01.037511 2045 2038 2135.1609 2133.0801 2131.2594 2131.5195 2133.6003 2136.2013 2129.9589 2129.6988 2131.7796 2134.6407 2135.1609 2136.7215 2161.6911 2519.5887 
14:33:01.044565 2045 2039 2133.0801 2135.1609 2131.5195 2130.7392 2133.8604 2133.8604 2128.9185 2129.6988 2133.8604 2135.1609 2131.7796 2131.2594 2161.431 2518.0281 
14:33:01.052516 2045 2039 2130.9993 2135.9412 2130.7392 2129.6988 2130.4791 2129.4387 2126.3175 2130.219 2133.0801 2135.421 2127.618 2132.5599 2162.4714 2520.1089 
14:33:01.060553 2045 2039 2128.3983 2134.3806 2132.2998 2132.2998 2131.2594 2126.3175 2130.219 2132.2998 2132.5599 2135.1609 2130.7392 2134.1205 2158.5699 2513.8665 
14:33:01.068426 2045 2038 2131.7796 2133.6003 2131.2594 2130.9993 2130.219 2127.3579 2126.5776 2133.6003 2132.82 2135.1609 2133.8604 2132.82 2158.3098 2516.7276 
14:33:01.076492 2043 2037 2130.7392 2133.6003 2131.2594 2133.0801 2130.4791 2130.9993 2127.8781 2134.6407 2132.2998 2134.9008 2132.0397 2127.0978 2158.0497 2510.2251 
14:33:01.084499 2044 2038 2131.2594 2132.2998 2131.7796 2132.0397 2128.6584 2133.0801 2129.4387 2133.3402 2132.0397 2135.1609 2132.82 2130.9993 2158.3098 2509.7049 
14:33:01.092501 2043 2038 2129.6988 2133.0801 2132.2998 2131.2594 2129.6988 2130.219 2132.0397 2132.5599 2133.8604 2134.1205 2133.6003 2135.421 2157.2694 2509.7049 
14:33:01.100485 2045 2038 2131.7796 2132.2998 2131.2594 2130.219 2129.4387 2128.6584 2126.5776 2131.7796 2133.6003 2132.82 2134.3806 2135.9412 2158.83 2514.6468 
14:33:01.107474 2045 2039 2133.0801 2130.219 2131.2594 2131.5195 2130.4791 2130.9993 2130.7392 2131.5195 2131.5195 2133.6003 2133.8604 2134.9008 2159.6103 2513.0862 
14:33:01.115523 2045 2038 2134.1205 2130.219 2130.9993 2129.9589 2129.6988 2131.2594 2132.2998 2131.7796 2130.9993 2134.9008 2134.9008 2138.5422 2162.2113 2515.9473 
14:33:01.123472 2044 2039 2131.7796 2133.0801 2130.219 2130.219 2131.5195 2132.5599 2130.7392 2132.5599 2131.7796 2134.9008 2134.6407 2137.7619 2161.6911 2516.2074 
14:33:01.131470 2045 2038 2133.6003 2133.6003 2131.2594 2132.2998 2132.2998 2135.6811 2130.219 2133.6003 2132.5599 2134.9008 2134.6407 2138.022 2161.431 2519.3286 
14:33:01.139424 2044 2037 2135.6811 2133.0801 2132.82 2132.5599 2132.0397 2135.421 2131.2594 2132.2998 2132.0397 2133.8604 2134.3806 2139.5826 2162.4714 2521.1493 
14:33:01.147461 2045 2038 2131.2594 2132.82 2132.2998 2132.2998 2131.2594 2129.4387 2130.7392 2132.2998 2132.5599 2134.3806 2135.1609 2137.5018 2161.431 2515.167 
14:33:01.155400 2046 2039 2129.9589 2133.0801 2130.9993 2131.7796 2130.7392 2126.8377 2128.9185 2133.6003 2133.0801 2135.1609 2132.82 2132.5599 2159.6103 2512.8261 
14:33:01.163485 2045 2037 2130.4791 2133.6003 2132.2998 2133.6003 2132.0397 2128.6584 2130.7392 2134.1205 2133.8604 2134.9008 2131.2594 2130.219 2160.1305 2514.6468 
14:33:01.171386 2045 2039 2132.5599 2133.3402 2132.2998 2131.2594 2131.7796 2132.0397 2129.1786 2132.2998 2134.6407 2134.9008 2131.7796 2131.7796 2161.9512 2517.768 
14:33:01.178496 2045 2037 2130.219 2133.6003 2130.9993 2130.7392 2130.9993 2131.7796 2128.6584 2133.3402 2133.8604 2134.9008 2129.9589 2130.4791 2159.0901 2512.3059 
14:33:01.186431 2046 2037 2131.2594 2134.1205 2130.4791 2130.219 2129.1786 2130.219 2123.9766 2133.0801 2131.5195 2134.1205 2128.3983 2130.9993 2158.3098 2515.9473 
14:33:01.194484 2047 2037 2132.0397 2133.3402 2132.5599 2132.5599 2130.9993 2128.9185 2125.2771 2131.5195 2132.2998 2134.3806 2130.9993 2131.7796 2158.3098 2514.1266 
14:33:01.202434 2045 2038 2133.8604 2133.3402 2130.9993 2130.219 2129.6988 2127.8781 2126.3175 2130.9993 2134.6407 2134.9008 2132.82 2134.3806 2160.3906 2516.2074 
14:33:01.210494 2046 2039 2129.4387 2134.1205 2130.9993 2131.2594 2130.4791 2127.8781 2130.219 2133.3402 2133.8604 2134.3806 2131.5195 2132.82 2159.6103 2510.4852 
14:33:01.218437 2045 2039 2130.7392 2132.0397 2132.2998 2130.219 2130.4791 2129.9589 2126.5776 2132.2998 2131.7796 2134.1205 2132.5599 2132.82 2158.5699 2511.0054 
14:33:01.226429 2045 2039 2132.2998 2130.4791 2133.6003 2131.7796 2132.2998 2132.0397 2132.0397 2131.5195 2132.0397 2134.9008 2134.3806 2134.1205 2158.0497 2509.7049 
14:33:01.234452 2046 2037 2133.0801 2130.9993 2131.7796 2130.9993 2131.7796 2133.0801 2134.1205 2131.7796 2132.2998 2136.2013 2136.2013 2139.3225 2161.1709 2515.4271 
14:33:01.241460 2044 2038 2130.219 2132.0397 2131.5195 2130.9993 2133.3402 2134.1205 2134.1205 2132.82 2133.0801 2136.7215 2134.9008 2138.022 2160.1305 2513.6064 
14:33:01.249476 2045 2039 2133.6003 2131.7796 2131.7796 2129.9589 2132.0397 2133.6003 2131.7796 2132.5599 2133.3402 2136.9816 2134.1205 2136.4614 2161.1709 2518.2882 
14:33:01.257464 2046 2038 2134.3806 2133.0801 2131.2594 2131.5195 2131.2594 2132.2998 2133.8604 2131.5195 2133.0801 2135.421 2134.1205 2136.4614 2162.4714 2521.9296 
14:33:01.266189 2046 2037 2133.3402 2133.6003 2130.4791 2130.7392 2130.219 2132.5599 2131.2594 2129.9589 2134.3806 2134.3806 2135.1609 2139.3225 2161.6911 2522.7099 
14:33:01.273489 2047 2037 2132.82 2133.0801 2130.4791 2130.219 2131.7796 2131.2594 2130.219 2130.4791 2134.3806 2134.1205 2131.7796 2136.4614 2160.3906 2518.8084 
14:33:01.281801 2048 2039 2132.5599 2133.3402 2131.2594 2130.7392 2132.82 2128.3983 2129.6988 2132.0397 2132.0397 2134.9008 2129.4387 2134.6407 2162.9916 2519.8488 
14:33:01.289458 2045 2038 2131.2594 2135.1609 2131.5195 2131.2594 2131.5195 2129.6988 2128.9185 2131.5195 2131.7796 2135.421 2129.6988 2135.1609 2161.9512 2518.5483 
14:33:01.297508 2045 2037 2130.219 2134.3806 2131.7796 2133.8604 2129.6988 2130.4791 2129.4387 2131.7796 2133.6003 2135.6811 2130.4791 2132.5599 2157.7896 2511.0054 
14:33:01.305477 2046 2038 2131.7796 2132.82 2132.82 2132.5599 2130.219 2128.9185 2128.1382 2132.2998 2133.3402 2135.421 2130.7392 2130.4791 2159.8704 2512.8261 
14:33:01.312469 2046 2038 2130.4791 2132.82 2133.8604 2131.5195 2131.7796 2127.8781 2129.1786 2132.2998 2133.6003 2134.3806 2131.2594 2130.4791 2160.1305 2510.2251 
14:33:01.320432 2045 2039 2130.9993 2134.1205 2131.7796 2130.7392 2129.1786 2128.1382 2129.4387 2130.7392 2133.8604 2133.8604 2130.7392 2132.5599 2158.83 2510.4852 
14:33:01.328511 2047 2038 2130.4791 2133.3402 2132.2998 2132.82 2129.6988 2127.3579 2130.7392 2130.9993 2133.6003 2134.6407 2132.0397 2132.82 2159.6103 2509.965 
14:33:01.336484 2047 2036 2133.0801 2130.9993 2132.0397 2130.219 2129.4387 2131.2594 2127.618 2131.7796 2132.5599 2135.9412 2134.9008 2134.1205 2160.3906 2515.4271 
14:33:01.344532 2046 2037 2130.9993 2130.219 2131.7796 2130.7392 2129.4387 2135.421 2132.0397 2134.1205 2132.0397 2135.9412 2133.8604 2134.9008 2157.7896 2512.566 
14:33:01.352493 2044 2038 2132.2998 2131.2594 2131.2594 2129.6988 2127.8781 2132.82 2129.6988 2133.8604 2131.5195 2135.1609 2133.6003 2139.0624 2161.431 2516.7276 
14:33:01.360505 2046 2038 2131.7796 2133.6003 2132.0397 2131.5195 2131.5195 2130.4791 2130.9993 2133.0801 2132.0397 2133.8604 2135.1609 2138.2821 2162.7315 2513.8665 
14:33:01.368534 2045 2037 2134.1205 2132.5599 2129.6988 2130.7392 2132.2998 2132.82 2131.2594 2133.3402 2132.2998 2134.1205 2135.9412 2138.022 2161.1709 2518.2882 
14:33:01.383476 2046 2038 2130.9993 2134.1205 2132.0397 2131.5195 2132.5599 2133.6003 2132.0397 2131.5195 2134.1205 2135.1609 2131.7796 2136.9816 2161.6911 2518.5483 
14:33:01.391475 2044 2038 2130.4791 2134.6407 2131.7796 2131.5195 2133.0801 2133.8604 2129.9589 2129.6988 2133.6003 2134.9008 2130.219 2131.2594 2160.1305 2517.768 
14:33:01.399523 2044 2038 2132.5599 2134.3806 2130.7392 2131.5195 2131.5195 2131.2594 2127.618 2129.9589 2134.3806 2135.6811 2129.4387 2131.2594 2160.9108 2520.6291 
14:33:01.407554 2046 2039 2132.2998 2135.421 2130.9993 2130.9993 2130.7392 2128.3983 2127.8781 2130.9993 2134.6407 2135.9412 2128.9185 2132.82 2160.3906 2515.9473 
14:33:01.415852 2045 2039 2131.5195 2133.8604 2132.0397 2129.6988 2128.6584 2127.8781 2127.618 2130.7392 2133.8604 2135.1609 2129.4387 2133.6003 2159.0901 2515.6872 
14:33:01.423515 2044 2038 2131.2594 2132.0397 2131.7796 2130.9993 2128.9185 2130.7392 2127.618 2130.4791 2132.0397 2134.6407 2129.9589 2132.2998 2159.0901 2516.4675 
14:33:01.431488 2046 2039 2130.4791 2132.82 2130.9993 2131.7796 2130.4791 2131.7796 2127.8781 2130.9993 2131.7796 2135.421 2132.0397 2131.5195 2158.83 2512.566 
14:33:01.438499 2046 2038 2130.4791 2133.8604 2130.9993 2130.219 2130.9993 2130.4791 2129.1786 2130.7392 2132.2998 2135.6811 2131.5195 2132.0397 2158.5699 2512.3059 
14:33:01.446456 2043 2038 2131.2594 2133.0801 2132.2998 2131.7796 2131.5195 2127.8781 2130.7392 2132.82 2132.0397 2134.1205 2132.5599 2133.3402 2159.0901 2510.4852 
14:33:01.454532 2045 2038 2132.0397 2132.5599 2131.2594 2130.4791 2130.9993 2129.4387 2129.4387 2134.3806 2131.5195 2134.3806 2135.1609 2133.0801 2158.83 2510.4852 
14:33:01.462509 2045 2038 2130.219 2132.82 2131.5195 2129.6988 2130.9993 2133.6003 2133.0801 2133.6003 2133.3402 2135.6811 2135.1609 2134.3806 2158.3098 2510.2251 
14:33:01.470505 2043 2039 2134.9008 2131.7796 2131.2594 2128.3983 2129.1786 2135.6811 2131.2594 2131.7796 2133.3402 2134.6407 2134.1205 2140.1028 2161.9512 2518.8084 
14:33:01.478476 2047 2039 2134.9008 2130.9993 2131.7796 2131.5195 2131.5195 2135.1609 2132.0397 2133.8604 2133.3402 2134.1205 2135.421 2140.3629 2162.9916 2517.768 
14:33:01.486507 2047 2039 2134.1205 2132.2998 2131.7796 2129.6988 2131.2594 2132.2998 2130.9993 2133.3402 2133.6003 2135.6811 2134.6407 2138.022 2162.7315 2521.9296 
14:33:01.494473 2046 2038 2132.0397 2134.3806 2132.5599 2130.4791 2132.5599 2129.4387 2133.6003 2131.5195 2133.6003 2135.9412 2132.0397 2136.2013 2161.9512 2519.0685 
14:33:01.501502 2044 2038 2134.3806 2133.6003 2131.2594 2130.4791 2132.2998 2131.7796 2130.219 2129.9589 2132.82 2135.1609 2133.6003 2138.5422 2162.7315 2520.8892 
14:33:01.509488 2044 2037 2130.7392 2134.3806 2132.0397 2133.3402 2134.1205 2134.9008 2132.5599 2131.7796 2133.6003 2135.421 2130.4791 2133.0801 2159.0901 2515.4271 
14:33:01.517499 2044 2037 2130.9993 2136.2013 2132.0397 2132.0397 2132.82 2133.6003 2130.219 2131.7796 2134.3806 2135.6811 2128.6584 2132.0397 2158.5699 2517.5079 
14:33:01.525435 2043 2039 2129.1786 2135.6811 2132.2998 2132.0397 2134.1205 2129.9589 2130.219 2130.4791 2134.6407 2134.3806 2130.9993 2131.2594 2158.5699 2512.8261 
14:33:01.533432 2045 2039 2129.1786 2133.3402 2132.2998 2130.9993 2131.2594 2126.0574 2127.3579 2132.5599 2133.3402 2134.9008 2131.7796 2129.4387 2160.1305 2512.566 
14:33:01.541481 2044 2037 2130.9993 2134.1205 2131.5195 2131.7796 2129.6988 2126.3175 2126.3175 2134.9008 2132.2998 2135.421 2129.6988 2128.1382 2159.0901 2512.8261 
14:33:01.549477 2044 2037 2133.3402 2134.1205 2130.4791 2130.219 2128.3983 2131.5195 2124.4968 2132.2998 2132.82 2134.9008 2131.5195 2132.5599 2157.7896 2515.4271 
14:33:01.557446 2046 2039 2130.219 2133.3402 2131.7796 2129.9589 2129.4387 2134.6407 2127.8781 2130.9993 2133.6003 2134.3806 2132.0397 2133.6003 2157.5295 2512.8261 
14:33:01.565435 2046 2039 2130.219 2131.7796 2132.5599 2131.2594 2130.219 2130.219 2128.6584 2134.3806 2133.6003 2134.1205 2133.3402 2134.6407 2159.6103 2511.7857 
14:33:01.572493 2046 2038 2133.0801 2130.4791 2130.4791 2130.7392 2130.219 2127.618 2129.4387 2134.9008 2133.6003 2134.3806 2135.6811 2134.9008 2160.6507 2513.8665 
14:33:01.580486 2045 2040 2132.0397 2130.219 2130.9993 2130.4791 2129.9589 2125.5372 2131.2594 2133.3402 2133.3402 2134.9008 2135.6811 2135.6811 2160.1305 2512.8261 
14:33:01.588472 2046 2039 2131.7796 2131.5195 2132.82 2131.2594 2131.2594 2126.3175 2131.5195 2132.82 2132.2998 2134.6407 2133.8604 2137.7619 2160.3906 2512.0458 
14:33:01.596417 2043 2037 2132.0397 2132.0397 2132.2998 2133.8604 2133.3402 2134.6407 2134.1205 2133.8604 2133.8604 2134.3806 2135.9412 2138.8023 2160.3906 2514.6468 
14:33:01.604513 2043 2037 2133.8604 2131.7796 2129.9589 2130.9993 2131.2594 2140.1028 2132.2998 2133.0801 2134.1205 2134.1205 2135.9412 2139.0624 2162.4714 2524.0104 
14:33:01.612461 2045 2039 2132.2998 2132.82 2132.5599 2131.2594 2132.5599 2134.1205 2132.0397 2133.0801 2133.6003 2133.8604 2133.0801 2137.5018 2162.2113 2520.369 
14:33:01.620605 2046 2038 2133.3402 2132.5599 2132.2998 2129.9589 2133.6003 2127.618 2128.9185 2132.2998 2133.6003 2134.6407 2132.82 2135.9412 2161.9512 2519.5887 
14:33:01.628443 2046 2038 2130.9993 2132.5599 2130.7392 2131.5195 2133.6003 2126.0574 2131.2594 2132.0397 2133.8604 2135.1609 2133.0801 2133.6003 2161.1709 2517.768 
14:33:01.635482 2046 2038 2131.5195 2133.6003 2129.4387 2130.9993 2130.4791 2129.4387 2126.5776 2132.82 2134.6407 2135.1609 2131.2594 2136.9816 2162.9916 2521.1493 
14:33:01.643472 2045 2036 2129.6988 2134.1205 2131.5195 2133.6003 2132.0397 2135.9412 2127.3579 2133.8604 2135.6811 2135.9412 2129.4387 2133.6003 2159.8704 2513.8665 
14:33:01.651415 2044 2038 2131.7796 2133.0801 2132.0397 2131.5195 2132.0397 2136.2013 2126.5776 2132.82 2134.1205 2135.9412 2132.0397 2132.5599 2159.3502 2517.5079 
14:33:01.659415 2045 2038 2130.7392 2133.3402 2132.82 2132.2998 2133.0801 2128.6584 2130.219 2132.0397 2132.82 2134.6407 2132.2998 2132.82 2158.83 2512.8261 
14:33:01.667873 2046 2038 2130.219 2133.6003 2131.2594 2131.5195 2130.7392 2124.4968 2128.6584 2130.4791 2134.3806 2135.1609 2130.7392 2132.2998 2158.3098 2510.7453 
14:33:01.675442 2046 2039 2128.3983 2134.1205 2130.7392 2131.7796 2129.9589 2126.5776 2129.9589 2130.219 2135.1609 2136.2013 2130.7392 2132.5599 2157.5295 2510.2251 
14:33:01.683417 2045 2038 2130.4791 2132.5599 2131.5195 2129.9589 2129.1786 2129.6988 2127.3579 2130.9993 2132.5599 2135.421 2134.3806 2138.2821 2159.6103 2513.8665 
14:33:01.691439 2042 2038 2130.9993 2130.4791 2131.2594 2129.1786 2131.5195 2134.1205 2128.6584 2131.7796 2132.2998 2135.1609 2134.6407 2137.5018 2159.8704 2511.0054 
14:33:01.698909 2043 2037 2133.3402 2129.6988 2129.6988 2128.9185 2131.5195 2135.1609 2129.6988 2131.7796 2134.1205 2135.421 2134.6407 2137.5018 2162.2113 2515.167 
14:33:01.706441 2044 2036 2134.1205 2132.82 2130.7392 2130.9993 2131.2594 2133.8604 2130.9993 2132.0397 2133.6003 2134.6407 2134.9008 2138.8023 2163.5118 2518.8084 
14:33:01.714484 2046 2039 2132.0397 2133.0801 2132.0397 2131.7796 2131.2594 2130.9993 2132.2998 2133.6003 2131.5195 2134.3806 2135.6811 2139.3225 2161.9512 2517.5079 
14:33:01.722448 2047 2039 2131.5195 2132.2998 2131.5195 2131.2594 2131.7796 2128.6584 2131.5195 2134.1205 2131.7796 2135.6811 2134.9008 2136.9816 2161.1709 2518.0281 
14:33:01.730502 2045 2039 2132.0397 2134.6407 2132.2998 2132.5599 2133.3402 2129.9589 2130.9993 2133.8604 2134.3806 2136.9816 2134.3806 2136.7215 2161.6911 2516.9877 
14:33:01.738493 2045 2038 2132.82 2136.2013 2131.7796 2132.0397 2133.6003 2134.9008 2131.2594 2132.82 2134.6407 2136.9816 2132.2998 2135.6811 2160.9108 2517.2478 
14:33:01.746447 2044 2037 2129.9589 2134.9008 2131.2594 2132.5599 2133.8604 2136.2013 2133.3402 2133.8604 2134.3806 2135.9412 2130.4791 2132.2998 2159.8704 2515.4271 
14:33:01.754453 2044 2037 2131.2594 2133.0801 2130.4791 2130.9993 2133.0801 2133.8604 2128.9185 2133.0801 2133.3402 2135.421 2132.0397 2133.6003 2161.6911 2519.5887 
14:33:01.762462 2047 2037 2129.6988 2132.0397 2131.7796 2131.5195 2133.6003 2129.4387 2130.219 2132.82 2134.1205 2135.421 2132.82 2132.82 2159.0901 2514.9069 
14:33:01.769464 2046 2037 2132.0397 2132.0397 2130.9993 2130.4791 2130.9993 2126.5776 2127.8781 2132.2998 2135.9412 2135.1609 2131.5195 2132.82 2158.83 2517.768 
14:33:01.777438 2047 2038 2131.2594 2133.6003 2132.0397 2132.82 2131.7796 2128.1382 2127.3579 2132.82 2135.6811 2134.6407 2131.2594 2131.7796 2158.5699 2513.8665 
14:33:01.785430 2043 2038 2132.0397 2132.5599 2132.0397 2130.219 2129.9589 2132.82 2126.3175 2132.2998 2133.3402 2135.1609 2131.7796 2134.1205 2158.3098 2514.3867 
14:33:01.793484 2044 2038 2129.6988 2132.2998 2132.82 2131.7796 2129.9589 2133.3402 2132.2998 2132.0397 2133.0801 2134.9008 2130.9993 2133.0801 2156.7492 2509.965 
14:33:01.801423 2044 2039 2132.82 2132.0397 2132.2998 2131.5195 2129.9589 2131.7796 2128.6584 2130.9993 2133.0801 2134.9008 2133.3402 2132.82 2158.0497 2513.6064 
14:33:01.809419 2044 2039 2131.5195 2130.4791 2133.3402 2131.5195 2133.0801 2130.4791 2129.9589 2132.0397 2133.0801 2134.1205 2134.3806 2132.2998 2158.5699 2510.4852 
14:33:01.817419 2046 2039 2132.0397 2130.219 2133.6003 2129.1786 2131.2594 2129.4387 2130.7392 2132.5599 2132.2998 2133.8604 2134.6407 2137.7619 2160.3906 2513.6064 
14:33:01.825503 2047 2039 2132.5599 2132.5599 2132.5599 2130.4791 2131.2594 2131.5195 2132.5599 2132.2998 2133.0801 2134.3806 2135.6811 2139.5826 2160.3906 2515.167 
14:33:01.832445 2043 2038 2134.1205 2132.82 2130.9993 2130.219 2132.0397 2134.9008 2131.2594 2132.82 2133.8604 2134.9008 2136.2013 2137.2417 2161.431 2520.6291 
14:33:01.840440 2045 2037 2132.0397 2133.8604 2131.5195 2130.7392 2132.5599 2135.421 2132.5599 2133.0801 2133.6003 2135.1609 2133.3402 2135.9412 2162.2113 2520.369 
14:33:01.848486 2044 2039 2132.0397 2133.8604 2132.0397 2130.9993 2131.2594 2133.8604 2130.4791 2131.7796 2133.8604 2135.1609 2134.3806 2140.8831 2163.7719 2518.0281 
14:33:01.856508 2044 2037 2132.82 2133.3402 2131.2594 2129.9589 2131.5195 2133.0801 2129.9589 2130.9993 2132.82 2134.6407 2134.3806 2138.8023 2161.1709 2516.2074 
14:33:01.864441 2043 2038 2131.5195 2134.3806 2131.7796 2131.2594 2131.7796 2129.4387 2130.9993 2133.3402 2130.7392 2134.6407 2131.2594 2134.9008 2160.3906 2518.0281 
14:33:01.872435 2046 2038 2130.7392 2135.6811 2132.82 2132.0397 2132.2998 2128.6584 2130.7392 2133.6003 2131.2594 2135.421 2129.6988 2135.1609 2161.431 2518.2882 
14:33:01.880484 2044 2036 2130.4791 2133.6003 2132.82 2132.0397 2132.0397 2131.7796 2130.7392 2132.82 2134.3806 2135.1609 2129.9589 2133.0801 2158.83 2511.0054 
14:33:01.888511 2044 2038 2132.5599 2133.6003 2131.5195 2130.219 2129.9589 2133.6003 2126.8377 2132.0397 2133.8604 2135.421 2129.1786 2130.219 2158.5699 2513.3463 
14:33:01.896465 2045 2037 2131.2594 2133.6003 2131.7796 2132.5599 2129.6988 2131.7796 2127.8781 2132.0397 2132.0397 2136.7215 2130.7392 2129.6988 2158.0497 2511.5256 
14:33:01.903467 2044 2037 2131.7796 2132.2998 2131.2594 2130.7392 2127.8781 2130.9993 2126.8377 2130.7392 2132.0397 2136.2013 2132.0397 2132.0397 2157.5295 2512.566 
14:33:01.911776 2045 2038 2130.219 2132.2998 2132.0397 2130.9993 2128.9185 2129.4387 2127.618 2130.9993 2132.2998 2134.1205 2131.2594 2134.6407 2156.229 2510.7453 
14:33:01.919499 2047 2040 2133.3402 2131.5195 2130.9993 2129.9589 2129.4387 2128.1382 2125.5372 2131.7796 2132.0397 2133.8604 2133.0801 2137.5018 2159.3502 2515.9473 
14:33:01.927445 2045 2039 2131.7796 2131.2594 2131.7796 2131.2594 2129.4387 2129.9589 2132.2998 2132.2998 2132.5599 2134.6407 2134.1205 2134.6407 2159.3502 2512.3059 
14:33:01.935538 2046 2037 2132.2998 2132.0397 2132.5599 2129.6988 2127.3579 2133.3402 2130.4791 2129.9589 2132.2998 2134.6407 2134.1205 2137.7619 2159.6103 2515.9473 
14:33:01.943471 2045 2037 2131.2594 2132.2998 2133.6003 2130.9993 2132.82 2134.6407 2131.7796 2130.7392 2131.5195 2134.1205 2134.6407 2139.3225 2159.0901 2514.9069 
14:33:01.951476 2046 2039 2133.0801 2131.7796 2131.5195 2128.6584 2133.6003 2133.3402 2131.7796 2132.2998 2131.7796 2134.9008 2135.421 2137.2417 2161.1709 2519.0685 
