# H:M:S.f Gyro(x) Gyro(y) F3 FC5 AF3 F7 T7 P7 O1 O2 P8 T8 F8 AF4 FC6 F4
14:31:48.126171 2044 2037 2123.9766 2123.9766 2139.5826 2140.8831 2131.2594 2123.1963 2129.4387 2135.421 2135.9412 2135.1609 2150.2467 2147.9058 2161.9512 2509.965 
14:31:48.127265 2044 2037 2124.2367 2144.0043 2120.3352 2119.0347 2144.2644 2147.1255 2143.7442 2132.0397 2127.618 2133.3402 2101.0878 2094.3252 2146.8654 2493.5787 
14:31:48.128178 2044 2036 2141.9235 2144.2644 2115.6534 2112.5322 2137.7619 2148.9462 2134.6407 2125.7973 2126.5776 2134.3806 2099.007 2108.1105 2155.1886 2526.6114 
14:31:48.129368 2045 2037 2142.1836 2129.9589 2129.1786 2127.8781 2126.5776 2131.5195 2123.9766 2127.618 2132.0397 2135.1609 2131.7796 2142.7038 2165.8527 2539.0962 
14:31:48.131156 2045 2038 2126.8377 2130.219 2133.0801 2133.3402 2130.9993 2128.9185 2129.9589 2130.9993 2133.0801 2135.1609 2131.7796 2128.9185 2158.5699 2513.0862 
14:31:48.132145 2047 2038 2130.9993 2137.2417 2125.7973 2125.017 2134.9008 2136.4614 2130.9993 2127.8781 2130.9993 2134.6407 2116.9539 2116.1736 2155.1886 2511.7857 
14:31:48.133159 2046 2038 2135.1609 2131.2594 2132.5599 2131.5195 2127.618 2128.6584 2123.1963 2128.9185 2133.0801 2135.6811 2134.6407 2139.0624 2161.9512 2521.9296 
14:31:48.134121 2044 2037 2128.1382 2133.8604 2131.7796 2130.7392 2130.4791 2131.7796 2129.9589 2131.5195 2132.2998 2134.6407 2128.3983 2126.0574 2156.7492 2506.0635 
14:31:48.135178 2045 2037 2131.7796 2131.7796 2131.2594 2130.4791 2130.219 2129.9589 2127.8781 2130.7392 2132.2998 2134.3806 2130.9993 2132.82 2159.8704 2514.1266 
14:31:48.137941 2046 2037 2131.7796 2131.2594 2131.7796 2132.82 2131.2594 2127.618 2129.6988 2131.7796 2133.0801 2134.6407 2133.3402 2135.421 2160.1305 2511.7857 
14:31:48.145923 2046 2036 2132.5599 2132.2998 2131.7796 2132.5599 2130.7392 2129.1786 2131.5195 2131.2594 2132.5599 2135.1609 2132.2998 2134.9008 2160.1305 2514.9069 
14:31:48.154010 2046 2037 2132.2998 2130.7392 2132.5599 2133.3402 2130.4791 2130.219 2131.5195 2131.5195 2132.82 2135.1609 2134.6407 2136.2013 2160.9108 2515.6872 
14:31:48.169932 2045 2038 2132.2998 2131.5195 2130.4791 2130.7392 2132.2998 2130.7392 2131.2594 2130.7392 2133.3402 2135.421 2133.0801 2138.022 2161.9512 2517.768 
14:31:48.176924 2045 2039 2128.9185 2133.0801 2131.2594 2130.9993 2132.2998 2131.7796 2132.0397 2130.7392 2132.5599 2135.1609 2132.0397 2136.7215 2161.1709 2519.3286 
14:31:48.185012 2044 2039 2128.9185 2133.3402 2131.5195 2131.2594 2131.5195 2132.0397 2130.7392 2130.9993 2133.0801 2134.3806 2132.2998 2134.1205 2159.3502 2515.9473 
14:31:48.192933 2045 2040 2129.9589 2132.82 2130.9993 2131.5195 2130.7392 2130.4791 2129.4387 2130.9993 2133.6003 2135.1609 2130.219 2131.7796 2159.6103 2515.9473 
14:31:48.200931 2045 2038 2130.7392 2133.0801 2131.5195 2131.7796 2131.2594 2129.9589 2129.9589 2129.9589 2133.3402 2135.6811 2129.6988 2130.219 2158.83 2517.5079 
14:31:48.208925 2046 2037 2131.7796 2133.6003 2132.2998 2132.5599 2132.5599 2130.219 2129.9589 2130.4791 2133.8604 2134.9008 2132.0397 2131.5195 2157.0093 2514.1266 
14:31:48.217005 2047 2038 2130.9993 2133.8604 2132.0397 2132.2998 2132.0397 2130.9993 2128.6584 2130.219 2134.1205 2134.3806 2132.82 2133.6003 2158.3098 2511.5256 
14:31:48.224933 2046 2039 2130.7392 2133.0801 2132.5599 2131.2594 2130.4791 2129.4387 2127.618 2130.4791 2133.3402 2134.9008 2132.2998 2135.421 2160.1305 2512.8261 
14:31:48.232932 2046 2038 2132.5599 2132.0397 2131.7796 2131.5195 2130.4791 2128.6584 2126.5776 2130.4791 2132.2998 2135.1609 2132.2998 2134.9008 2159.0901 2513.0862 
14:31:48.240922 2045 2039 2133.8604 2131.5195 2130.7392 2131.5195 2130.219 2128.6584 2129.1786 2131.7796 2132.2998 2134.9008 2132.82 2133.0801 2158.3098 2514.1266 
14:31:48.247966 2046 2038 2132.0397 2130.9993 2132.0397 2131.2594 2129.4387 2128.1382 2130.7392 2132.82 2133.6003 2135.421 2135.1609 2137.5018 2160.1305 2516.2074 
14:31:48.255938 2047 2037 2130.7392 2131.5195 2132.82 2131.2594 2132.0397 2128.9185 2130.9993 2132.0397 2133.3402 2135.421 2133.8604 2137.7619 2160.9108 2513.8665 
14:31:48.263931 2046 2039 2131.5195 2131.2594 2132.2998 2131.5195 2132.82 2129.9589 2131.2594 2130.219 2132.5599 2134.1205 2132.82 2135.1609 2161.1709 2516.2074 
14:31:48.271950 2045 2040 2131.7796 2131.7796 2130.9993 2131.2594 2131.2594 2130.7392 2131.5195 2130.7392 2132.82 2133.0801 2132.0397 2135.1609 2161.1709 2520.6291 
14:31:48.280024 2045 2039 2130.4791 2132.5599 2131.7796 2132.2998 2130.7392 2130.4791 2130.7392 2130.7392 2133.8604 2133.8604 2134.1205 2139.5826 2162.4714 2519.8488 
14:31:48.287935 2044 2038 2130.219 2133.6003 2132.0397 2132.5599 2133.0801 2130.9993 2132.5599 2129.1786 2133.8604 2134.6407 2133.0801 2135.421 2159.8704 2515.9473 
14:31:48.295925 2044 2037 2130.9993 2131.7796 2131.7796 2132.82 2132.5599 2128.3983 2132.0397 2130.219 2133.6003 2134.6407 2132.82 2133.0801 2158.83 2518.8084 
14:31:48.303919 2046 2036 2130.9993 2131.7796 2130.4791 2132.82 2132.0397 2129.4387 2130.219 2130.9993 2133.6003 2134.1205 2131.7796 2133.0801 2160.1305 2517.5079 
14:31:48.311000 2046 2038 2130.7392 2133.0801 2131.2594 2133.3402 2132.0397 2131.2594 2128.3983 2129.1786 2133.0801 2134.9008 2132.0397 2133.0801 2160.6507 2513.0862 
14:31:48.318927 2046 2039 2131.7796 2133.3402 2132.5599 2132.5599 2131.2594 2129.1786 2127.8781 2129.6988 2132.0397 2135.9412 2132.0397 2132.0397 2158.83 2512.0458 
14:31:48.326923 2046 2040 2131.7796 2132.2998 2132.82 2133.6003 2129.6988 2127.0978 2128.1382 2132.82 2133.0801 2135.6811 2133.6003 2132.82 2158.83 2512.0458 
14:31:48.335013 2044 2037 2130.4791 2133.0801 2130.9993 2133.0801 2130.4791 2129.9589 2129.9589 2132.2998 2133.8604 2134.9008 2133.6003 2130.7392 2159.0901 2510.2251 
14:31:48.342969 2043 2036 2130.9993 2132.0397 2130.4791 2132.0397 2130.4791 2129.6988 2130.9993 2131.7796 2132.82 2134.9008 2133.8604 2132.82 2159.6103 2512.8261 
14:31:48.350966 2045 2038 2133.6003 2130.9993 2132.0397 2131.7796 2129.6988 2128.3983 2128.9185 2132.0397 2132.82 2134.9008 2134.9008 2136.4614 2159.8704 2514.9069 
14:31:48.358918 2046 2038 2133.6003 2131.7796 2132.2998 2132.2998 2132.0397 2129.9589 2130.4791 2132.0397 2134.9008 2135.1609 2135.421 2136.9816 2160.1305 2514.3867 
14:31:48.367228 2046 2038 2131.5195 2132.2998 2130.9993 2132.2998 2131.7796 2132.0397 2132.0397 2131.2594 2132.82 2135.6811 2135.1609 2138.022 2161.1709 2517.2478 
14:31:48.374921 2046 2039 2131.5195 2131.7796 2130.7392 2132.0397 2130.219 2132.82 2132.0397 2131.7796 2130.7392 2134.6407 2135.421 2139.8427 2161.431 2519.3286 
14:31:48.381918 2044 2039 2132.82 2130.219 2132.2998 2132.5599 2130.4791 2132.82 2129.6988 2131.2594 2132.82 2134.9008 2136.4614 2140.1028 2160.9108 2518.8084 
14:31:48.389916 2044 2038 2131.2594 2130.219 2131.5195 2133.0801 2131.2594 2130.219 2130.9993 2130.219 2134.3806 2135.9412 2132.82 2135.1609 2160.3906 2518.5483 
14:31:48.398223 2046 2038 2130.219 2131.5195 2131.7796 2133.0801 2131.5195 2128.3983 2131.2594 2130.4791 2133.8604 2135.1609 2131.7796 2133.8604 2161.431 2518.5483 
14:31:48.405920 2047 2039 2130.219 2133.0801 2132.5599 2132.2998 2133.8604 2130.7392 2131.2594 2131.2594 2133.3402 2135.1609 2132.5599 2132.0397 2159.6103 2514.9069 
14:31:48.413916 2046 2039 2130.7392 2132.5599 2132.0397 2132.2998 2132.0397 2129.9589 2128.1382 2130.9993 2133.0801 2137.2417 2133.3402 2132.0397 2158.3098 2515.4271 
14:31:48.421915 2044 2039 2130.9993 2133.3402 2131.2594 2132.2998 2128.9185 2129.6988 2125.2771 2129.9589 2132.82 2135.6811 2130.219 2132.2998 2158.3098 2516.2074 
14:31:48.429996 2045 2038 2130.7392 2132.2998 2132.0397 2133.0801 2127.618 2130.219 2127.0978 2130.4791 2134.1205 2133.6003 2131.5195 2134.3806 2158.3098 2513.8665 
14:31:48.436918 2044 2038 2130.4791 2131.2594 2131.5195 2132.5599 2127.8781 2130.219 2127.8781 2130.9993 2133.6003 2134.1205 2133.8604 2132.82 2158.83 2513.3463 
14:31:48.444918 2045 2037 2131.5195 2131.5195 2132.2998 2132.5599 2128.6584 2127.618 2125.2771 2131.7796 2132.82 2135.421 2134.3806 2134.3806 2160.3906 2514.6468 
14:31:48.452915 2046 2037 2134.1205 2131.7796 2131.7796 2129.9589 2129.9589 2129.1786 2126.8377 2129.6988 2133.8604 2135.421 2134.1205 2137.2417 2160.3906 2515.6872 
14:31:48.460986 2046 2037 2133.0801 2131.7796 2129.4387 2130.9993 2129.9589 2128.9185 2133.8604 2129.1786 2133.8604 2135.421 2135.1609 2137.2417 2160.3906 2514.6468 
14:31:48.468918 2046 2038 2133.6003 2132.0397 2128.9185 2131.7796 2129.1786 2130.7392 2130.9993 2128.6584 2131.2594 2135.421 2134.9008 2138.2821 2160.6507 2518.2882 
14:31:48.476916 2045 2039 2133.0801 2131.2594 2132.5599 2131.2594 2132.5599 2132.5599 2131.7796 2131.7796 2132.0397 2134.9008 2134.1205 2137.2417 2159.8704 2516.4675 
14:31:48.484916 2045 2039 2133.3402 2130.7392 2133.3402 2128.6584 2133.3402 2132.2998 2129.9589 2129.6988 2132.82 2134.3806 2135.421 2138.2821 2161.9512 2522.7099 
14:31:48.492993 2044 2039 2129.6988 2133.0801 2131.5195 2130.219 2132.5599 2128.9185 2130.219 2130.9993 2132.82 2134.1205 2133.3402 2135.9412 2161.9512 2521.1493 
14:31:48.500930 2045 2038 2133.6003 2133.6003 2130.219 2130.7392 2130.219 2129.1786 2125.7973 2128.9185 2132.0397 2135.6811 2133.3402 2138.5422 2161.6911 2522.1897 
14:31:48.507940 2046 2040 2133.6003 2132.0397 2131.2594 2131.2594 2131.7796 2129.1786 2130.9993 2128.3983 2132.0397 2136.9816 2131.2594 2133.6003 2159.8704 2520.369 
14:31:48.515918 2045 2039 2134.6407 2130.7392 2131.2594 2130.7392 2130.219 2129.6988 2123.9766 2126.3175 2132.0397 2135.9412 2132.5599 2136.2013 2160.9108 2526.8715 
14:31:48.524000 2045 2038 2131.2594 2132.0397 2130.4791 2131.5195 2130.219 2132.5599 2123.4564 2128.3983 2133.0801 2135.6811 2130.7392 2132.5599 2158.5699 2516.9877 
14:31:48.531921 2046 2038 2131.5195 2131.7796 2130.219 2130.7392 2128.3983 2133.0801 2123.9766 2127.3579 2132.5599 2136.7215 2132.2998 2135.1609 2158.83 2515.9473 
14:31:48.539917 2045 2038 2131.7796 2132.0397 2130.7392 2130.219 2128.9185 2131.5195 2125.5372 2126.5776 2131.5195 2135.1609 2131.5195 2134.3806 2158.83 2516.9877 
14:31:48.547915 2045 2038 2133.3402 2131.5195 2130.9993 2129.9589 2129.4387 2130.219 2121.1155 2128.6584 2132.0397 2133.0801 2132.2998 2134.9008 2159.3502 2517.2478 
14:31:48.555996 2044 2039 2132.82 2133.0801 2129.4387 2128.1382 2129.4387 2133.0801 2122.416 2127.3579 2132.0397 2134.1205 2130.4791 2134.1205 2160.3906 2520.8892 
14:31:48.563917 2045 2038 2133.3402 2133.0801 2130.9993 2129.4387 2127.618 2132.82 2125.5372 2128.1382 2132.2998 2135.9412 2133.0801 2139.0624 2161.6911 2521.9296 
14:31:48.570918 2046 2038 2141.6634 2131.2594 2130.219 2128.3983 2127.0978 2134.1205 2118.7746 2124.2367 2130.7392 2134.9008 2136.9816 2145.0447 2162.9916 2526.6114 
14:31:48.578916 2043 2038 2138.2821 2129.9589 2130.4791 2130.219 2132.0397 2131.5195 2125.5372 2127.618 2131.7796 2133.8604 2136.4614 2141.9235 2162.2113 2521.9296 
14:31:48.586987 2043 2038 2140.1028 2131.5195 2129.1786 2126.5776 2128.3983 2134.9008 2117.4741 2120.5953 2131.2594 2134.1205 2135.1609 2146.8654 2165.5926 2542.2174 
14:31:48.594917 2045 2037 2134.3806 2132.5599 2132.0397 2130.9993 2130.7392 2132.2998 2125.017 2126.8377 2131.2594 2134.1205 2135.421 2142.1836 2161.9512 2529.7326 
14:31:48.602915 2044 2038 2141.9235 2130.7392 2129.9589 2127.8781 2128.6584 2135.421 2110.7115 2117.9943 2129.4387 2134.3806 2137.7619 2146.3452 2162.9916 2537.0154 
14:31:48.610914 2047 2037 2130.9993 2132.2998 2130.7392 2131.2594 2133.0801 2132.2998 2124.7569 2125.2771 2133.6003 2134.9008 2129.6988 2132.5599 2159.8704 2524.5306 
14:31:48.618996 2046 2038 2142.4437 2132.0397 2128.6584 2126.3175 2123.9766 2136.4614 2098.7469 2114.3529 2132.2998 2135.9412 2133.8604 2141.1432 2165.0724 2525.8311 
14:31:48.626917 2044 2038 2133.3402 2132.5599 2130.219 2130.7392 2128.6584 2132.0397 2117.214 2122.416 2130.7392 2135.6811 2132.5599 2130.219 2158.3098 2489.6772 
14:31:48.634925 2043 2038 2146.3452 2128.6584 2127.0978 2126.3175 2122.1559 2137.7619 2091.204 2106.2898 2130.219 2135.1609 2137.7619 2148.9462 2164.8123 2496.4398 
14:31:48.641952 2045 2039 2136.2013 2131.2594 2129.4387 2128.9185 2128.3983 2135.421 2095.6257 2119.0347 2132.0397 2135.1609 2132.2998 2135.9412 2159.3502 2463.147 
14:31:48.649985 2044 2038 2154.4083 2126.5776 2128.1382 2126.0574 2120.3352 2138.5422 2091.9843 2098.7469 2131.5195 2135.9412 2142.4437 2151.8073 2166.8931 2443.6395 
14:31:48.657916 2045 2041 2145.3048 2129.1786 2128.6584 2127.0978 2123.1963 2136.9816 2109.9312 2107.5903 2130.4791 2135.421 2136.4614 2153.3679 2164.5522 2424.3921 
14:31:48.665916 2048 2039 2156.4891 2120.3352 2126.8377 2127.0978 2117.214 2141.4033 2115.6534 2094.0651 2130.7392 2135.6811 2144.7846 2160.3906 2171.5749 2417.8896 
14:31:48.673916 2048 2039 2161.9512 2124.4968 2126.5776 2126.3175 2123.1963 2144.2644 2126.0574 2076.8985 2130.9993 2135.421 2142.1836 2154.1482 2167.9335 2402.2836 
14:31:48.681979 2048 2038 2153.628 2120.0751 2128.1382 2129.9589 2122.416 2144.0043 2145.5649 2091.204 2133.6003 2136.4614 2145.3048 2147.1255 2171.5749 2383.2963 
14:31:48.689922 2046 2038 2161.1709 2117.7342 2127.3579 2129.4387 2119.815 2151.027 2132.82 2094.0651 2133.0801 2137.2417 2147.9058 2154.9285 2176.7769 2377.0539 
14:31:48.697922 2044 2037 2145.5649 2121.3756 2131.2594 2133.6003 2127.8781 2144.0043 2146.3452 2120.3352 2133.3402 2136.7215 2144.0043 2138.5422 2171.835 2359.6272 
14:31:48.704938 2045 2038 2143.7442 2119.0347 2126.0574 2127.618 2122.416 2152.0674 2140.8831 2112.2721 2132.0397 2136.4614 2145.5649 2136.9816 2180.6784 2354.4252 
14:31:48.712966 2045 2039 2112.5322 2127.0978 2128.6584 2131.7796 2130.7392 2140.623 2160.3906 2147.6457 2132.2998 2136.4614 2135.9412 2120.8554 2170.5345 2318.5314 
14:31:48.720939 2045 2039 2125.2771 2119.0347 2123.4564 2128.1382 2119.815 2145.825 2161.1709 2133.6003 2131.5195 2138.022 2145.0447 2132.82 2175.9966 2321.6526 
14:31:48.728926 2044 2039 2105.2494 2131.7796 2132.0397 2131.5195 2128.9185 2135.9412 2177.8173 2157.5295 2130.7392 2135.421 2129.6988 2124.2367 2158.83 2312.8092 
14:31:48.736991 2050 2037 2110.7115 2120.8554 2125.2771 2127.618 2118.7746 2142.7038 2185.8804 2156.7492 2129.1786 2136.4614 2140.8831 2134.1205 2170.5345 2303.9658 
14:31:48.744958 2063 2026 2100.0474 2131.2594 2128.6584 2128.6584 2130.4791 2134.1205 2203.5672 2178.3375 2130.9993 2136.2013 2129.4387 2129.9589 2157.5295 2285.2386 
14:31:48.752931 2046 2030 2106.0297 2132.5599 2135.421 2136.4614 2126.3175 2149.4664 2208.5091 2185.1001 2130.9993 2135.9412 2136.7215 2133.3402 2165.0724 2288.0997 
14:31:48.760922 2004 1962 2100.8277 2132.0397 2136.2013 2134.1205 2131.2594 2130.4791 2200.9662 2186.4006 2128.6584 2133.6003 2130.7392 2130.9993 2152.3275 2279.5164 
14:31:48.768001 1799 1883 2103.6888 2147.3856 2161.6911 2154.9285 2140.1028 2151.2871 2197.3248 2179.8981 2129.6988 2135.421 2136.9816 2126.0574 2155.1886 2271.1932 
14:31:48.775957 1739 1818 2110.9716 2156.7492 2158.3098 2157.2694 2147.1255 2149.9866 2206.4283 2184.5799 2130.9993 2135.421 2130.9993 2118.5145 2154.6684 2264.1705 
14:31:48.784931 1804 1703 2150.2467 2068.0551 2082.3606 2126.8377 2086.7823 2168.1936 2257.1478 2247.0039 2157.2694 2139.3225 2182.7592 2172.8754 2207.4687 2323.9935 
14:31:48.791923 1745 1719 2121.3756 2157.0093 2207.9889 2191.6026 2135.421 2139.0624 2194.9839 2171.5749 2138.2821 2138.2821 2155.7088 2129.9589 2178.0774 2281.5972 
14:31:48.800157 1747 1811 2093.805 2076.1182 2061.0324 2102.1282 2092.5045 2088.8631 2249.6049 2273.7942 2163.7719 2146.0851 2149.7265 2120.8554 2179.638 2268.3321 
14:31:48.807936 1829 1880 2200.1859 1748.9124 1713.5388 1915.3764 1886.2452 2224.3752 2374.4529 2415.5487 2200.7061 2136.2013 2291.481 2306.5668 2324.2536 2462.3667 
14:31:48.815928 1921 2062 2251.9458 1802.7531 1863.3564 1965.3156 1898.9901 2158.5699 2554.4421 2537.0154 2266.5114 2197.5849 2347.4025 2354.1651 2368.4706 2417.6295 
14:31:48.823923 1973 2162 2168.1936 2095.3656 2235.2994 2186.9208 2103.6888 2186.1405 2589.5556 2610.1035 2236.86 2181.9789 2229.3171 2227.7565 2249.6049 2173.6557 
14:31:48.831136 2119 2235 2090.6838 2183.7996 2249.6049 2273.5341 2206.4283 2283.678 2374.1928 2361.708 2109.6711 2056.6107 2126.8377 2121.1155 2133.6003 2047.7673 
14:31:48.838934 2191 2243 2091.4641 2238.4206 2199.4056 2272.2336 2237.6403 2296.9431 2277.4356 2129.1786 2128.9185 2089.6434 2119.0347 2046.7269 2097.4464 1991.8458 
14:31:48.846929 2292 2167 2026.4391 2448.0612 2368.2105 2345.8419 2352.6045 2223.5949 2132.2998 2006.9316 2157.0093 2177.5572 2059.2117 1911.2148 2016.0351 1836.306 
14:31:48.854921 2343 2257 1990.8054 2392.3998 2303.1855 2261.0493 2317.2309 1795.9905 2098.2267 2108.3706 2148.9462 2159.6103 2046.7269 1902.3714 2014.2144 1849.0509 
14:31:48.862965 2404 2252 1987.164 2363.0085 2282.3775 2205.9081 2303.1855 1404.0198 2016.0351 1977.2802 2091.204 2090.4237 2045.1663 1914.5961 2019.4164 1878.1821 
14:31:48.870927 2426 2265 1977.8004 2387.1978 2290.7007 2179.3779 2318.7915 1462.2822 2124.2367 2049.3279 2133.3402 2108.8908 2052.9693 1887.5457 2015.775 1820.7 
14:31:48.878928 2434 2320 1965.3156 2353.6449 2249.0847 2185.8804 2269.3725 1913.0355 2045.4264 2045.1663 2097.4464 2094.0651 2059.2117 1899.2502 2036.583 1837.6065 
14:31:48.886920 2392 2319 1919.7981 2324.5137 2286.5391 2188.7415 2300.5845 1986.9039 2039.4441 2054.2698 2105.2494 2124.2367 2049.3279 1910.9547 2054.5299 1790.0082 
14:31:48.894966 2389 2289 1897.6896 2331.7965 2316.9708 2177.5572 2341.1601 1968.6969 2069.8758 2072.7369 2137.2417 2152.3275 2043.6057 1925.0001 2059.4718 1738.2483 
14:31:48.901929 2371 2315 1896.3891 2332.5768 2225.1555 2224.6353 2206.6884 1884.1644 2089.9035 2070.396 2114.613 2145.825 2044.386 1939.8258 2061.8127 1754.6346 
14:31:48.909930 2347 2306 1914.0759 2310.7284 2179.1178 2197.845 2124.2367 2038.1436 2089.3833 2083.6611 2109.9312 2157.5295 2049.8481 1941.6465 2063.3733 1777.2633 
14:31:48.917919 2277 2301 1981.4418 2272.2336 2250.6453 2173.6557 2220.9939 2380.6953 2064.4137 2081.0601 2118.5145 2161.6911 2066.7546 1956.9924 2075.3379 1864.1367 
14:31:48.925966 2254 2307 2014.9947 2299.0239 2281.5972 2161.431 2267.8119 2280.2967 2059.7319 2058.6915 2122.6761 2183.0193 2054.5299 1928.1213 2072.997 1926.0405 
14:31:48.933938 2249 2303 2029.5603 2295.6426 2224.1151 2176.7769 2162.7315 2192.1228 2096.1459 2049.588 2114.0928 2209.5495 2072.2167 1937.745 2096.9262 1941.1263 
14:31:48.941930 2256 2295 2027.2194 2292.7815 2225.6757 2146.8654 2171.5749 2388.2382 2101.3479 2048.2875 2116.4337 2170.7946 2095.6257 1957.2525 2100.3075 1890.6669 
14:31:48.949920 2261 2212 2049.588 2260.7892 2211.6303 2129.9589 2238.9408 2252.7261 2091.204 2059.4718 2129.6988 2135.421 2105.5095 1978.3206 2108.6307 1911.735 
14:31:48.957974 2264 2182 2019.9366 2256.3675 2206.9485 2160.6507 2279.5164 2057.6511 2071.9566 2042.0451 2131.2594 2150.5068 2079.7596 1953.351 2090.9439 1903.932 
14:31:48.965930 2266 2174 2044.1259 2253.7665 2198.1051 2121.1155 2280.0366 2367.4302 2082.1005 2051.6688 2138.8023 2164.032 2092.2444 1968.6969 2100.0474 1942.1667 
14:31:48.972930 2217 2034 2056.8708 2279.5164 2198.6253 2124.4968 2284.9785 2493.3186 2085.2217 2058.4314 2129.6988 2144.2644 2090.4237 1975.1994 2095.1055 1959.5934 
14:31:48.980920 2215 1997 2068.0551 2270.9331 2175.9966 2094.8454 2271.4533 2303.7057 2093.0247 2071.6965 2130.4791 2146.0851 2094.8454 1992.6261 2107.3302 1967.6565 
14:31:48.988992 2195 2101 2058.9516 2268.5922 2194.2036 2098.7469 2283.678 2378.6145 2086.7823 2069.0955 2125.017 2147.6457 2087.0424 1992.6261 2110.7115 1959.0732 
14:31:48.996940 2178 2143 2071.6965 2268.072 2183.7996 2106.0297 2282.1174 2380.1751 2093.805 2068.5753 2137.7619 2141.1432 2080.5399 1995.2271 2119.5549 1965.8358 
14:31:49.004931 2148 2150 2104.4691 2287.0593 2147.6457 2063.1132 2267.0316 2122.6761 2099.2671 2064.9339 2141.6634 2157.0093 2074.8177 2003.5503 2114.3529 1983.0024 
14:31:49.012945 2173 2143 2087.8227 2289.4002 2079.2394 2011.8735 2191.6026 1836.306 2099.5272 2065.194 2177.2971 2181.7188 2084.1813 2006.4114 2117.7342 1990.5453 
14:31:49.020978 2242 2089 2020.977 2240.7615 2076.8985 2050.1082 2116.9539 1729.9251 2091.204 2060.5122 2166.3729 2160.6507 2090.1636 1999.9089 2114.613 1988.9847 
14:31:49.028931 2274 2077 2001.7296 2224.6353 2134.1205 2094.0651 2136.9816 1890.927 2102.9085 2060.2521 2144.7846 2140.8831 2089.3833 2001.9897 2100.0474 1988.4645 
14:31:49.035930 2314 2078 2033.982 2298.7638 2153.628 2090.1636 2224.1151 2304.2259 2124.2367 2067.2748 2138.2821 2148.9462 2084.9616 1997.0478 2082.1005 1976.76 
14:31:49.043952 2313 2079 2033.4618 2310.4683 2118.2544 2119.2948 2237.9004 2428.2936 2117.4741 2065.4541 2126.5776 2123.1963 2086.5222 1980.1413 2085.4818 1961.6742 
14:31:49.051964 2297 2074 2023.0578 2241.2817 2138.8023 2170.7946 2181.9789 2168.4537 2098.4868 2068.0551 2105.2494 2099.007 2097.4464 1987.164 2098.2267 1989.2448 
14:31:49.059932 2326 2076 2024.8785 2233.2186 2184.84 2194.9839 2186.9208 2112.5322 2079.2394 2065.194 2116.9539 2120.8554 2095.3656 1989.5049 2098.2267 2007.4518 
14:31:49.067929 2370 2071 2037.8835 2216.5722 2181.4587 2197.5849 2226.456 2197.5849 2067.0147 2066.2344 2137.7619 2141.9235 2096.9262 1996.2675 2116.1736 2029.5603 
14:31:49.075934 2429 2013 2042.5653 2204.6076 2181.4587 2154.1482 2269.1124 2186.4006 2077.6788 2053.7496 2128.9185 2137.2417 2087.0424 1991.0655 2115.3933 2031.9012 
14:31:49.083955 2448 1990 2058.6915 2221.254 2165.5926 2125.017 2252.466 2098.4868 2106.81 2066.4945 2140.3629 2143.224 2090.6838 2005.8912 2121.8958 2040.4845 
14:31:49.091927 2461 1983 2059.2117 2248.5645 2139.0624 2133.8604 2222.2944 2044.6461 2105.7696 2068.0551 2131.2594 2134.3806 2084.4414 2003.0301 2119.815 2023.3179 
14:31:49.098928 2453 1987 2071.4364 2229.3171 2130.219 2145.0447 2185.6203 2116.9539 2121.6357 2076.1182 2118.5145 2130.7392 2090.9439 2015.2548 2131.2594 2036.3229 
14:31:49.106933 2420 2012 2071.4364 2241.0216 2144.5245 2155.1886 2161.431 2226.9762 2127.0978 2069.8758 2118.5145 2130.9993 2083.9212 2007.7119 2125.5372 2032.9416 
14:31:49.114951 2396 2033 2081.8404 2235.8196 2158.3098 2150.7669 2159.0901 2312.0289 2118.5145 2083.9212 2121.3756 2121.3756 2086.002 2015.2548 2116.9539 2039.184 
14:31:49.122926 2353 2087 2073.7773 2230.6176 2179.8981 2142.4437 2198.6253 2292.2613 2103.1686 2083.1409 2113.3125 2104.7292 2083.401 2017.8558 2102.9085 2031.6411 
14:31:49.130919 2342 2093 2080.5399 2223.855 2152.0674 2119.5549 2196.8046 2199.9258 2116.1736 2082.1005 2123.9766 2118.2544 2094.3252 2029.8204 2120.5953 2037.8835 
14:31:49.138974 2358 2091 2071.1763 2232.6984 2132.0397 2113.5726 2190.3021 2105.7696 2099.2671 2076.8985 2130.9993 2121.1155 2084.7015 2019.6765 2120.5953 2030.0805 
14:31:49.146948 2367 2068 2063.6334 2234.7792 2131.5195 2107.8504 2196.0243 2090.9439 2106.81 2083.9212 2128.1382 2112.012 2084.1813 2010.8331 2108.3706 2028.2598 
14:31:49.154925 2373 2003 2061.2925 2234.5191 2137.2417 2107.8504 2199.4056 2159.6103 2117.9943 2082.1005 2138.2821 2128.9185 2091.4641 2010.573 2107.8504 2032.6815 
14:31:49.161923 2398 1979 2062.593 2231.3979 2114.3529 2116.1736 2183.2794 2139.5826 2110.4514 2080.2798 2157.2694 2155.4487 2095.3656 2015.2548 2111.2317 2033.982 
14:31:49.169968 2399 1955 2062.8531 2244.9231 2091.204 2116.6938 2170.2744 2114.3529 2119.0347 2077.6788 2148.6861 2154.1482 2093.805 2013.4341 2105.5095 2035.5426 
14:31:49.185935 2327 1927 2062.593 2227.2363 2140.623 2131.5195 2198.6253 2231.1378 2108.1105 2076.6384 2146.3452 2156.4891 2099.5272 2016.0351 2114.0928 2054.0097 
14:31:49.193927 2270 1936 2062.593 2225.4156 2154.1482 2150.2467 2204.6076 2179.3779 2105.5095 2078.4591 2133.3402 2141.9235 2094.5853 2016.0351 2111.4918 2053.4895 
14:31:49.202175 2240 1947 2078.4591 2223.855 2157.7896 2157.0093 2202.2667 2174.6961 2108.3706 2084.1813 2119.0347 2131.2594 2095.1055 2021.2371 2119.5549 2057.391 
14:31:49.209929 2198 1963 2076.1182 2230.6176 2162.4714 2151.5472 2214.7515 2202.5268 2102.6484 2075.8581 2115.9135 2123.1963 2083.401 2003.2902 2113.0524 2037.8835 
14:31:49.217919 2182 1971 2082.6207 2223.0747 2137.2417 2126.5776 2198.6253 2140.623 2117.9943 2084.4414 2114.3529 2113.3125 2087.0424 2007.7119 2118.5145 2034.5022 
14:31:49.225917 2168 1982 2079.7596 2231.658 2139.0624 2124.2367 2197.3248 2109.411 2118.2544 2078.199 2099.007 2097.9666 2082.1005 2006.4114 2117.4741 2023.3179 
14:31:49.233168 2175 1983 2089.1232 2229.8373 2125.7973 2110.7115 2189.2617 2125.5372 2114.8731 2087.5626 2110.4514 2109.6711 2087.3025 2014.9947 2122.416 2025.6588 
14:31:49.240934 2213 1975 2076.3783 2238.9408 2117.7342 2103.1686 2186.9208 2114.8731 2115.1332 2089.6434 2131.5195 2122.416 2082.3606 2009.7927 2113.3125 2013.174 
14:31:49.248918 2220 1973 2071.9566 2229.3171 2120.3352 2106.5499 2180.4183 2117.4741 2117.214 2095.1055 2140.3629 2130.219 2090.6838 2016.8154 2116.9539 2018.8962 
14:31:49.256920 2213 1957 2061.8127 2233.7388 2139.8427 2117.4741 2191.0824 2165.8527 2110.7115 2082.3606 2126.8377 2125.2771 2084.9616 2012.1336 2105.5095 2015.2548 
14:31:49.267961 2199 1942 2065.194 2229.3171 2139.0624 2115.3933 2185.1001 2145.3048 2110.7115 2086.002 2124.4968 2128.6584 2092.5045 2018.1159 2104.4691 2021.7573 
14:31:49.272922 2179 1923 2062.593 2236.3398 2145.825 2120.0751 2191.8627 2115.1332 2107.8504 2080.5399 2122.1559 2124.7569 2090.9439 2012.6538 2100.8277 2015.5149 
14:31:49.286920 2157 1925 2061.2925 2231.658 2149.7265 2128.9185 2196.0243 2139.0624 2112.012 2078.4591 2121.1155 2122.6761 2094.5853 2006.6715 2105.7696 2009.2725 
14:31:49.288919 2121 1927 2068.8354 2240.7615 2149.7265 2112.5322 2202.0066 2190.042 2108.1105 2073.5172 2115.1332 2117.214 2088.603 1997.0478 2107.0701 2010.0528 
14:31:49.295963 2063 1963 2067.5349 2246.4837 2153.1078 2112.012 2208.5091 2156.4891 2105.7696 2070.1359 2104.209 2100.0474 2084.1813 1993.4064 2107.5903 2017.3356 
14:31:49.303919 2023 1989 2067.5349 2238.4206 2136.4614 2079.7596 2202.2667 2096.9262 2088.8631 2071.1763 2113.8327 2115.1332 2082.1005 1998.0882 2111.4918 2029.8204 
14:31:49.311913 1960 2008 2053.4895 2240.2413 2140.3629 2101.8681 2202.7869 2116.1736 2112.012 2075.8581 2135.6811 2147.1255 2079.2394 1993.1463 2109.1509 2001.9897 
14:31:49.319910 1949 2031 2056.8708 2234.259 2123.7165 2042.3052 2192.643 2106.0297 2062.8531 2074.2975 2120.3352 2137.5018 2076.8985 1988.7246 2108.8908 2036.0628 
14:31:49.328007 1948 2060 2031.6411 2236.5999 2112.5322 2045.1663 2186.1405 2072.997 2052.7092 2063.3733 2110.1913 2113.8327 2070.1359 1974.9393 2100.3075 2090.4237 
14:31:49.335921 1945 2058 2040.7446 2242.5822 2120.3352 2069.8758 2186.4006 2063.1132 2069.6157 2072.997 2137.7619 2138.2821 2074.0374 1974.159 2103.4287 2016.8154 
14:31:49.343913 1940 2026 2047.2471 2262.0897 2145.5649 2119.815 2206.1682 2070.9162 2106.0297 2073.5172 2153.628 2158.0497 2074.8177 1966.356 2091.7242 1897.1694 
14:31:49.351914 1945 2024 2039.9643 2271.1932 2127.3579 2100.0474 2206.9485 2080.0197 2106.2898 2076.1182 2138.5422 2146.6053 2080.0197 1965.3156 2087.3025 1908.6138 
14:31:49.359957 1951 2045 2000.6892 2287.3194 2160.6507 2143.4841 2230.8777 2169.7542 2133.0801 2072.2167 2129.9589 2141.9235 2066.2344 1946.5884 2077.1586 1931.5026 
14:31:49.366915 1934 2065 1981.7019 2290.1805 2218.3929 2190.042 2255.5872 2254.8069 2135.421 2082.8808 2153.1078 2159.0901 2077.9389 1942.1667 2074.8177 1867.2579 
14:31:49.374913 1928 2072 1972.8585 2297.2032 2215.0116 2183.2794 2265.7311 2231.9181 2120.3352 2075.8581 2139.3225 2146.0851 2087.5626 1943.2071 2068.0551 1833.9651 
14:31:49.382912 1910 2085 1950.4899 2277.9558 2202.2667 2193.4233 2247.264 2172.3552 2132.82 2078.9793 2109.9312 2132.0397 2081.8404 1931.7627 2094.8454 1862.8362 
14:31:49.390959 1899 2090 1919.7981 2261.0493 2247.264 2208.7692 2248.3044 2160.3906 2102.3883 2068.0551 2098.2267 2106.5499 2056.3506 1903.4118 2099.7873 1863.0963 
14:31:49.398912 1893 2091 1913.8158 2261.3094 2224.6353 2199.6657 2245.1832 2112.5322 2106.0297 2061.8127 2115.9135 2078.4591 2072.7369 1926.0405 2083.9212 1861.2756 
14:31:49.406909 1891 2091 1932.0228 2290.9608 2164.032 2169.7542 2239.461 2054.79 2122.9362 2055.0501 2118.5145 2101.3479 2079.2394 1943.9874 2066.4945 1848.0105 
14:31:49.414911 1872 2101 1943.4672 2283.9381 2148.6861 2163.2517 2227.7565 2051.6688 2138.8023 2063.6334 2113.3125 2153.1078 2067.0147 1952.8308 2081.3202 1860.7554 
14:31:49.422966 1865 2089 1923.6996 2287.5795 2177.8173 2174.6961 2243.6226 2101.3479 2136.4614 2057.1309 2118.2544 2138.022 2047.7673 1942.947 2071.9566 1859.4549 
14:31:49.429913 1842 2071 1919.2779 2291.481 2166.3729 2174.436 2243.3625 2127.618 2139.5826 2057.391 2121.6357 2109.411 2054.0097 1948.149 2071.6965 1857.114 
14:31:49.437909 1836 2052 1919.2779 2292.5214 2174.9562 2178.3375 2237.6403 2162.4714 2122.1559 2067.0147 2125.7973 2114.613 2054.5299 1938.7854 2078.9793 1859.9751 
14:31:49.445958 1832 2044 1921.0986 2282.6376 2208.7692 2180.1582 2233.4787 2145.5649 2115.9135 2067.2748 2123.7165 2100.8277 2060.5122 1944.2475 2070.396 1876.3614 
14:31:49.453970 1825 2033 1922.139 2282.6376 2189.7819 2179.8981 2233.4787 2119.5549 2129.1786 2065.9743 2140.8831 2073.2571 2070.6561 1950.2298 2080.2798 1879.2225 
14:31:49.461932 1832 2025 1923.6996 2278.476 2175.4764 2181.1986 2233.7388 2144.2644 2127.3579 2068.3152 2143.7442 2100.5676 2068.0551 1950.4899 2082.8808 1868.5584 
14:31:49.469928 1827 1964 1921.3587 2256.1074 2206.6884 2184.3198 2233.7388 2125.7973 2114.3529 2067.2748 2144.0043 2148.426 2068.3152 1962.9747 2058.9516 1879.4826 
14:31:49.477935 1829 1944 1909.3941 2252.2059 2232.4383 2191.8627 2238.6807 2116.6938 2104.7292 2055.5703 2128.3983 2134.6407 2071.9566 1967.3964 2038.1436 1882.0836 
14:31:49.485946 1824 1929 1921.3587 2261.0493 2205.648 2181.4587 2233.4787 2199.6657 2133.0801 2059.4718 2125.017 2101.0878 2075.3379 1978.0605 2053.7496 1885.725 
14:31:49.492930 1816 1944 1916.4168 2280.0366 2207.4687 2178.3375 2248.8246 2244.4029 2136.7215 2045.6865 2123.7165 2100.0474 2061.5526 1973.3787 2039.7042 1865.9574 
14:31:49.500947 1800 1964 1917.9774 2285.7588 2214.2313 2169.234 2247.264 2176.2567 2144.5245 2037.6234 2140.623 2112.2721 2075.0778 1981.1817 2027.4795 1865.6973 
14:31:49.508992 1810 1976 1914.8562 2309.688 2203.047 2169.7542 2243.8827 2113.0524 2140.623 2033.7219 2136.9816 2094.5853 2070.1359 1967.3964 2025.6588 1857.6342 
14:31:49.516947 1846 2022 1928.6415 2297.7234 2204.6076 2166.3729 2238.4206 2150.7669 2138.5422 2048.8077 2147.1255 2087.5626 2070.6561 1985.0832 2033.7219 1862.8362 
14:31:49.524912 1869 2039 1907.3133 2289.9204 2226.1959 2183.0193 2275.6149 2193.9435 2127.0978 2045.4264 2144.5245 2089.6434 2065.7142 1989.765 2030.8608 1843.5888 
14:31:49.532918 1941 1980 1889.8866 2273.0139 2219.9535 2181.4587 2270.9331 2038.6638 2104.4691 2052.7092 2141.9235 2086.2621 2075.3379 1992.366 2030.8608 1839.4272 
14:31:49.541148 2005 2030 1890.927 2283.678 2232.6984 2199.6657 2239.9812 2061.5526 2116.4337 2045.6865 2135.421 2059.2117 2075.0778 1974.4191 2007.972 1829.0232 
14:31:49.548930 1872 2206 1915.6365 2271.7134 2229.8373 2199.9258 2195.244 2226.456 2146.6053 2052.189 2128.6584 2059.2117 2075.598 1985.0832 2014.7346 1835.5257 
14:31:49.555915 1862 2247 1899.5103 2259.7488 2214.4914 2186.9208 2149.9866 1962.9747 2144.5245 2060.2521 2129.4387 2100.0474 2043.6057 1960.6338 2044.386 1857.6342 
14:31:49.563911 1895 2194 1909.3941 2257.9281 2181.1986 2181.7188 2198.1051 1870.8993 2146.3452 2070.9162 2123.1963 2140.3629 2036.8431 1964.0151 2065.4541 1857.114 
14:31:49.572092 1857 2185 1941.3864 2282.6376 2174.9562 2203.8273 2371.0716 2559.9042 2185.3602 2066.2344 2121.6357 2123.1963 2046.4668 2021.7573 2066.7546 1809.2556 
14:31:49.579925 1860 2236 1961.154 2288.0997 2212.9308 2182.4991 2406.9654 2781.5094 2154.4083 2062.3329 2123.1963 2104.9893 2036.3229 2017.0755 2050.8885 1806.3945 
14:31:49.587911 1916 2240 1937.2248 2286.0189 2243.6226 2146.0851 2283.9381 2065.194 2079.4995 2054.79 2137.2417 2121.3756 2024.8785 1935.144 2025.3987 1825.6419 
14:31:49.595910 1933 2251 1961.6742 2276.3952 2205.648 2153.3679 2209.5495 1670.8824 2104.9893 2042.5653 2130.219 2128.6584 2040.7446 1933.8435 1999.9089 1840.9878 
14:31:49.603980 1943 2284 2008.4922 2254.2867 2152.5876 2156.4891 2195.244 1780.6446 2136.9816 2046.2067 2124.2367 2127.3579 2051.9289 1980.1413 2001.9897 1884.1644 
14:31:49.611918 1983 2307 1978.5807 2274.0543 2194.4637 2163.5118 2222.0343 2105.7696 2110.4514 2037.8835 2118.5145 2133.3402 2041.5249 1948.149 1993.4064 1888.5861 
14:31:49.618920 2017 2281 1952.0505 2273.7942 2229.057 2174.6961 2277.1755 2558.8638 2095.8858 2055.3102 2125.5372 2147.9058 2054.5299 1957.7727 2006.1513 1870.8993 
14:31:49.626908 2023 2265 1974.9393 2255.067 2211.8904 2184.0597 2286.5391 2525.0508 2170.2744 2065.194 2126.5776 2135.421 2060.5122 2011.3533 2013.6942 1880.523 
14:31:49.634952 2036 2252 1985.6034 2295.6426 2216.8323 2182.239 2275.0947 2160.6507 2147.6457 2032.1613 2115.9135 2129.1786 2037.6234 1981.962 1987.164 1880.0028 
14:31:49.642920 2053 2268 1943.4672 2337.5187 2239.9812 2193.9435 2310.2082 2192.9031 2092.5045 2010.8331 2114.3529 2139.8427 2024.0982 1925.5203 1963.4949 1832.1444 
14:31:49.650917 2060 2302 1953.8712 2294.3421 2224.3752 2181.7188 2290.1805 2369.2509 2127.3579 2054.0097 2131.2594 2147.3856 2046.987 1951.5303 1988.9847 1849.0509 
14:31:49.658905 2043 2316 1953.6111 2295.6426 2232.1782 2181.1986 2265.471 2284.4583 2169.7542 2054.79 2126.0574 2145.0447 2039.7042 1953.351 1984.0428 1850.0913 
14:31:49.666948 2035 2337 1952.8308 2320.8723 2237.9004 2181.9789 2265.2109 2170.5345 2128.1382 2032.6815 2124.7569 2147.3856 2037.1032 1946.8485 1975.9797 1833.4449 
14:31:49.674921 2032 2417 1953.0909 2310.9885 2234.259 2184.3198 2263.9104 2168.9739 2115.6534 2046.4668 2124.4968 2146.0851 2043.0855 1957.7727 1986.6438 1837.8666 
14:31:49.682916 2042 2472 1966.6161 2295.3825 2225.6757 2180.9385 2252.2059 2159.0901 2132.0397 2058.1713 2124.2367 2148.6861 2052.4491 1979.8812 2005.371 1857.114 
14:31:49.690918 2055 2609 1966.356 2314.89 2239.7211 2189.7819 2265.9912 2172.8754 2122.1559 2035.2825 2115.3933 2133.8604 2041.0047 1961.154 1988.2044 1844.109 
14:31:49.697957 2055 2698 1978.8408 2306.0466 2228.2767 2182.7592 2260.269 2162.9916 2126.3175 2038.9239 2123.4564 2121.1155 2053.4895 1963.4949 1991.8458 1856.3337 
14:31:49.705926 2076 2873 1969.9974 2308.3875 2238.4206 2193.4233 2277.1755 2212.9308 2121.3756 2018.1159 2116.9539 2104.9893 2046.4668 1961.4141 1987.164 1853.4726 
14:31:49.713921 2054 2357 1962.4545 2331.0162 2263.9104 2212.4106 2294.6022 2248.0443 2086.5222 1967.1363 2097.4464 2099.007 2033.7219 1959.0732 1971.0378 1839.9474 
14:31:49.721915 2134 2209 1990.2852 2298.5037 2205.1278 2161.9512 2273.274 2178.5976 2189.7819 2129.9589 2175.4764 2158.83 2065.9743 1981.4418 1991.0655 1860.7554 
14:31:49.729979 2203 2227 1951.2702 2291.2209 2219.1732 2170.2744 2289.4002 2205.648 2139.3225 2013.9543 2117.7342 2130.9993 2030.6007 1964.7954 1982.4822 1861.2756 
14:31:49.737924 2104 2089 1900.0305 2350.7838 2256.1074 2264.9508 2276.3952 2149.2063 2009.7927 1826.4222 2031.381 2077.6788 1983.2625 1913.5557 1946.0682 1774.6623 
14:31:49.745925 2056 1989 2081.0601 2212.4106 2043.8658 2024.3583 2184.3198 2029.0401 2405.1447 2635.3332 2397.0816 2292.5214 2158.5699 2048.0274 2054.0097 1932.2829 
14:31:49.753913 2072 1954 1989.5049 2074.0374 1838.6469 1886.5053 2152.3275 2148.9462 2479.0131 2795.5548 2452.2228 2319.8319 2082.8808 2006.1513 2041.785 1990.8054 
14:31:49.760963 2094 2005 1759.8366 1989.2448 1635.2487 2179.1178 1778.0436 1740.5892 2149.7265 2055.8304 2103.1686 2097.4464 1961.4141 1949.1894 2054.5299 1836.306 
14:31:49.768925 2079 1928 2030.0805 2216.5722 1911.2148 2394.2205 1821.2202 1923.9597 2120.0751 1782.4653 1989.2448 2042.5653 2033.4618 2143.7442 2062.8531 2063.1132 
14:31:49.776924 2061 1731 2468.0889 2454.3036 2494.359 2245.1832 2428.5537 2926.9053 2373.6726 2165.0724 2194.2036 2190.3021 2170.5345 2275.6149 2000.169 2409.0462 
14:31:49.784950 2113 1742 2297.2032 2475.8919 2515.4271 2208.249 2440.5183 2881.6479 2194.9839 1944.5076 2089.1232 2132.5599 2057.9112 2018.1159 1920.3183 2199.1455 
14:31:49.792966 2113 1773 1900.2906 2348.9631 2180.9385 2280.5568 2203.5672 2688.3936 2104.9893 1902.6315 2017.3356 2072.7369 2037.3633 1853.7327 2029.5603 1905.2325 
14:31:49.800925 2118 1820 1838.6469 2462.1066 2406.9654 2248.3044 2621.0277 3355.8102 2219.1732 2144.2644 2120.5953 2145.5649 2114.613 1983.0024 2106.0297 2018.1159 
14:31:49.808923 2123 1779 1849.311 2582.2728 2598.9192 2247.7842 2715.7041 2886.0696 2168.7138 1995.2271 2056.0905 2096.406 2053.4895 2052.9693 1958.0328 2002.5099 
14:31:49.816962 2116 1802 1958.0328 2407.7457 2317.491 2228.7969 2204.8677 2304.486 2211.6303 2006.9316 1984.3029 2000.9493 2044.1259 2156.229 1954.6515 2008.4922 
14:31:49.823952 2120 1895 2017.5957 2293.8219 2309.4279 2219.9535 2223.3348 3201.5709 2227.7565 2108.8908 1994.967 2006.1513 2068.0551 2182.4991 2071.4364 2134.3806 
14:31:49.831925 2147 1929 2021.2371 2176.7769 2309.1678 2179.638 2278.7361 3042.9099 2223.0747 2222.2944 2115.9135 2130.219 2168.1936 2183.5395 2211.1101 2282.1174 
14:31:49.850970 2115 1905 2044.1259 2103.1686 2159.8704 2155.4487 2080.8 2067.0147 2251.4256 2211.1101 2147.6457 2158.0497 2196.8046 2229.057 2186.1405 2332.5768 
14:31:49.855926 2093 1908 2132.0397 2074.0374 2132.5599 2138.5422 2083.1409 2278.476 2227.7565 2152.3275 2115.6534 2119.5549 2173.1355 2287.3194 2141.4033 2257.9281 
14:31:49.863920 2086 1927 2174.9562 2104.4691 2151.027 2118.2544 2150.2467 2376.2736 2166.1128 2143.4841 2111.2317 2132.2998 2142.1836 2234.7792 2142.7038 2132.2998 
14:31:49.871923 2083 1984 2147.6457 2101.3479 2109.1509 2107.3302 2140.623 2060.2521 2121.1155 2152.3275 2112.2721 2136.2013 2123.7165 2167.6734 2137.7619 2110.1913 
14:31:49.879980 2079 1998 2098.4868 2119.0347 2135.9412 2139.5826 2181.9789 2178.5976 2143.4841 2107.8504 2105.2494 2125.017 2117.4741 2158.3098 2102.9085 2093.0247 
14:31:49.886946 2070 2021 2053.7496 2133.6003 2134.3806 2136.2013 2165.3325 2109.411 2125.5372 2044.6461 2107.3302 2133.8604 2109.1509 2147.1255 2091.4641 2055.5703 
14:31:49.894921 2061 2048 2021.2371 2136.4614 2139.0624 2128.6584 2167.9335 2147.9058 2121.6357 2099.7873 2106.81 2129.6988 2097.4464 2085.4818 2093.805 2066.7546 
14:31:49.902922 2057 2132 2037.8835 2130.9993 2153.1078 2133.8604 2175.7365 2293.3017 2087.5626 2086.5222 2107.3302 2129.4387 2111.4918 2077.1586 2122.1559 2098.2267 
14:31:49.911002 2051 2159 2028.5199 2118.2544 2136.7215 2135.6811 2167.6734 2130.219 2107.3302 2073.2571 2116.9539 2129.9589 2110.9716 2091.7242 2120.0751 2100.3075 
14:31:49.918934 2038 2194 2035.5426 2116.9539 2137.7619 2141.9235 2155.1886 2039.9643 2109.6711 2058.4314 2114.0928 2130.7392 2115.3933 2129.1786 2125.7973 2113.0524 
14:31:49.926915 2032 2208 2026.6992 2112.7923 2147.6457 2150.7669 2160.3906 2152.3275 2117.4741 2110.7115 2120.0751 2132.2998 2116.1736 2129.9589 2131.5195 2125.5372 
14:31:49.934921 2016 2244 2045.6865 2104.9893 2147.9058 2148.1659 2161.431 2097.9666 2103.9489 2114.3529 2120.0751 2132.2998 2125.2771 2132.2998 2147.6457 2162.7315 
14:31:49.943159 2007 2253 2056.6107 2107.3302 2146.3452 2149.9866 2160.9108 2031.9012 2122.1559 2120.3352 2125.5372 2133.6003 2127.0978 2122.9362 2151.027 2183.0193 
14:31:49.950928 1983 2263 2066.4945 2120.5953 2153.3679 2153.628 2167.1532 2111.4918 2126.3175 2104.9893 2123.9766 2133.3402 2125.5372 2117.7342 2146.0851 2172.8754 
14:31:49.957918 1975 2280 2069.3556 2125.7973 2155.9689 2150.5068 2168.1936 2072.7369 2123.9766 2113.3125 2125.2771 2133.8604 2128.1382 2114.8731 2151.2871 2172.6153 
14:31:49.965915 1971 2298 2061.2925 2118.2544 2153.1078 2151.027 2168.4537 1968.6969 2127.8781 2142.1836 2129.9589 2134.1205 2132.0397 2113.3125 2153.3679 2173.1355 
14:31:49.974100 1951 2263 2079.4995 2113.8327 2154.1482 2153.3679 2165.5926 1956.9924 2115.9135 2119.815 2127.3579 2135.6811 2134.1205 2125.017 2158.5699 2193.4233 
14:31:49.981924 1936 2187 2083.401 2117.214 2158.3098 2158.83 2169.7542 1997.3079 2126.8377 2128.1382 2132.0397 2135.421 2130.4791 2125.017 2156.7492 2199.1455 
14:31:49.989929 1951 2211 2081.0601 2120.3352 2152.0674 2149.4664 2165.8527 1976.2398 2108.8908 2122.6761 2128.9185 2134.3806 2130.9993 2126.5776 2162.2113 2203.5672 
14:31:49.997920 1957 2193 2073.5172 2117.214 2154.4083 2153.3679 2165.5926 1958.553 2121.6357 2145.0447 2133.3402 2135.9412 2132.0397 2121.8958 2165.5926 2204.6076 
14:31:50.005960 1952 2095 2082.6207 2125.7973 2161.431 2152.0674 2171.0547 2007.7119 2106.5499 2127.0978 2130.7392 2135.421 2128.1382 2118.5145 2165.3325 2203.8273 
14:31:50.013923 1962 2084 2024.6184 2155.7088 2155.4487 2144.5245 2181.1986 1901.5911 2081.0601 2100.3075 2125.2771 2131.7796 2106.5499 2068.5753 2132.0397 2091.9843 
14:31:50.021921 1979 2064 2012.1336 2163.7719 2149.7265 2141.9235 2172.3552 1883.6442 2074.2975 2093.2848 2119.2948 2131.2594 2105.5095 2064.4137 2129.4387 2054.79 
14:31:50.028919 1986 2057 2053.7496 2158.0497 2172.3552 2162.9916 2175.9966 2041.5249 2096.1459 2120.0751 2128.1382 2133.8604 2123.9766 2096.9262 2157.0093 2104.4691 
14:31:50.036956 1997 2056 2050.8885 2185.6203 2182.239 2168.9739 2195.7642 2011.0932 2077.9389 2093.0247 2123.9766 2132.2998 2117.4741 2091.4641 2144.2644 2065.7142 
14:31:50.044916 2015 2058 2015.5149 2189.2617 2158.83 2160.9108 2190.042 1793.6496 2064.6738 2065.194 2116.9539 2131.2594 2102.1282 2065.194 2120.0751 1979.361 
14:31:50.052914 2022 2036 2065.194 2131.7796 2138.8023 2167.9335 2159.6103 1840.9878 2110.1913 2100.8277 2124.7569 2133.6003 2126.0574 2121.8958 2156.7492 2073.5172 
14:31:50.060913 1993 2034 2118.7746 2081.3202 2132.5599 2173.3956 2144.2644 1997.8281 2142.4437 2146.3452 2138.022 2136.2013 2155.1886 2183.0193 2194.9839 2179.638 
14:31:50.068955 1989 2033 2097.7065 2089.6434 2131.2594 2161.6911 2148.9462 1979.361 2134.1205 2136.4614 2136.4614 2139.0624 2152.3275 2180.1582 2181.9789 2136.2013 
14:31:50.076917 2001 2024 2112.012 2090.1636 2138.022 2143.224 2141.6634 1978.8408 2121.1155 2135.421 2137.7619 2139.8427 2152.3275 2181.1986 2180.4183 2148.1659 
14:31:50.083914 2015 2031 2176.2567 2075.8581 2142.7038 2127.0978 2129.9589 2037.3633 2110.4514 2150.5068 2140.623 2139.0624 2161.431 2196.0243 2188.4814 2262.6099 
14:31:50.091912 2028 2044 2186.1405 2078.7192 2135.1609 2115.1332 2128.1382 2001.4695 2094.3252 2140.3629 2136.2013 2139.0624 2159.6103 2185.3602 2178.3375 2291.7411 
14:31:50.099955 2027 2045 2118.5145 2091.4641 2125.2771 2116.9539 2126.5776 1843.8489 2099.2671 2123.9766 2134.6407 2138.5422 2148.9462 2166.1128 2167.1532 2209.5495 
14:31:50.107913 2041 2049 2088.0828 2096.6661 2120.8554 2123.4564 2120.3352 1809.5157 2104.209 2120.0751 2134.9008 2136.4614 2143.7442 2170.0143 2165.8527 2181.9789 
14:31:50.115913 2049 2046 2099.5272 2101.8681 2132.82 2133.8604 2135.9412 2028.5199 2106.2898 2122.6761 2132.0397 2135.9412 2142.9639 2172.8754 2160.9108 2206.1682 
14:31:50.123913 2063 2038 2095.6257 2117.214 2146.0851 2137.5018 2155.9689 2208.249 2108.6307 2113.8327 2127.3579 2136.9816 2140.3629 2165.8527 2156.229 2205.1278 
14:31:50.131964 2065 2026 2089.6434 2125.017 2145.3048 2139.8427 2152.0674 2159.3502 2119.815 2112.5322 2129.1786 2136.2013 2139.5826 2157.7896 2152.0674 2194.4637 
14:31:50.139918 2092 2002 2101.0878 2127.0978 2134.9008 2139.8427 2141.1432 2051.6688 2123.9766 2110.1913 2127.618 2133.3402 2139.0624 2152.8477 2145.825 2219.4333 
14:31:50.146912 2097 1981 2107.3302 2132.2998 2137.2417 2146.8654 2150.7669 2104.9893 2132.5599 2108.8908 2125.017 2133.6003 2136.4614 2147.9058 2140.3629 2235.0393 
14:31:50.154911 2104 1943 2121.1155 2137.7619 2142.4437 2147.6457 2157.2694 2173.6557 2137.2417 2107.3302 2123.7165 2135.421 2135.1609 2156.4891 2140.3629 2256.1074 
14:31:50.162961 2117 1918 2121.6357 2143.4841 2143.224 2150.7669 2159.3502 2135.6811 2143.4841 2099.2671 2121.6357 2133.3402 2131.5195 2157.2694 2134.3806 2245.1832 
14:31:50.170916 2117 1895 2107.0701 2150.7669 2142.1836 2156.229 2160.9108 2099.007 2146.3452 2089.9035 2117.7342 2130.219 2128.6584 2148.426 2128.9185 2213.9712 
14:31:50.178915 2115 1864 2103.6888 2167.4133 2149.2063 2166.3729 2172.3552 2145.3048 2155.4487 2086.7823 2115.9135 2130.219 2125.7973 2140.3629 2123.4564 2192.3829 
14:31:50.186910 2120 1868 2112.5322 2174.436 2163.2517 2168.7138 2179.8981 2219.4333 2156.7492 2093.5449 2119.2948 2131.2594 2132.2998 2146.3452 2127.618 2192.3829 
14:31:50.194966 2105 1842 2101.8681 2181.7188 2174.6961 2161.6911 2179.1178 2227.2363 2146.3452 2089.9035 2119.2948 2129.9589 2133.8604 2147.1255 2129.1786 2164.2921 
14:31:50.210913 2096 1871 2105.7696 2199.4056 2197.845 2160.1305 2184.3198 2333.097 2132.82 2090.9439 2117.9943 2131.7796 2131.7796 2154.6684 2128.3983 2125.2771 
14:31:50.217986 2091 1885 2127.8781 2157.7896 2192.1228 2161.431 2170.5345 2414.2482 2148.6861 2114.0928 2125.2771 2133.8604 2146.0851 2179.3779 2148.9462 2180.6784 
14:31:50.225962 2088 1911 2144.5245 2113.8327 2161.1709 2149.9866 2137.7619 2237.3802 2154.4083 2129.4387 2130.7392 2134.9008 2157.2694 2200.446 2165.5926 2225.6757 
14:31:50.233913 2082 1925 2152.8477 2101.8681 2149.4664 2143.7442 2126.5776 2161.6911 2153.3679 2139.8427 2132.82 2136.4614 2161.9512 2208.5091 2170.0143 2232.6984 
14:31:50.241913 2067 1962 2157.7896 2096.6661 2148.1659 2139.5826 2125.5372 2258.1882 2147.6457 2142.9639 2132.5599 2138.5422 2164.032 2215.2717 2175.4764 2250.6453 
14:31:50.250002 2064 1978 2145.5649 2086.002 2133.0801 2133.0801 2122.1559 2227.2363 2134.3806 2134.9008 2131.5195 2135.6811 2157.2694 2205.648 2172.8754 2246.7438 
14:31:50.257950 2056 1994 2130.9993 2091.9843 2124.7569 2127.618 2126.0574 2184.0597 2119.2948 2122.416 2128.1382 2134.9008 2150.2467 2191.6026 2164.2921 2216.8323 
14:31:50.265913 2047 2038 2120.5953 2102.6484 2133.8604 2131.7796 2136.4614 2225.1555 2125.017 2120.8554 2126.5776 2135.6811 2148.426 2183.7996 2158.5699 2187.7011 
14:31:50.273907 2041 2057 2120.3352 2100.3075 2132.2998 2129.1786 2131.7796 2167.1532 2125.2771 2120.8554 2127.618 2135.421 2146.8654 2181.4587 2161.6911 2186.4006 
14:31:50.281977 2028 2091 2118.5145 2101.3479 2127.618 2128.6584 2131.5195 2094.8454 2123.9766 2115.9135 2127.8781 2134.6407 2142.7038 2173.3956 2159.3502 2178.5976 
14:31:50.288938 2025 2113 2118.5145 2105.2494 2130.9993 2128.9185 2136.4614 2142.1836 2120.3352 2117.9943 2128.1382 2134.6407 2141.9235 2167.4133 2158.83 2169.234 
14:31:50.296908 2012 2144 2114.8731 2106.2898 2132.82 2131.2594 2139.0624 2162.4714 2124.4968 2121.1155 2127.0978 2133.3402 2141.9235 2165.8527 2159.6103 2163.7719 
14:31:50.304926 2006 2156 2117.4741 2104.4691 2131.2594 2129.4387 2136.4614 2120.3352 2119.815 2121.8958 2127.618 2133.8604 2144.0043 2167.9335 2161.6911 2172.3552 
14:31:50.312964 2000 2183 2117.9943 2104.209 2133.0801 2129.1786 2136.2013 2091.9843 2118.7746 2121.1155 2128.9185 2135.421 2142.9639 2166.3729 2160.6507 2175.2163 
14:31:50.320936 1996 2194 2117.214 2103.1686 2133.0801 2128.1382 2134.3806 2083.6611 2115.3933 2122.416 2129.1786 2134.6407 2140.3629 2160.3906 2161.431 2177.037 
14:31:50.328975 1985 2215 2117.214 2103.6888 2131.2594 2130.4791 2135.6811 2086.5222 2115.3933 2124.2367 2129.1786 2133.8604 2139.0624 2153.8881 2161.9512 2177.8173 
14:31:50.336908 1979 2227 2117.214 2103.4287 2129.1786 2129.6988 2135.1609 2074.2975 2115.3933 2125.5372 2129.9589 2135.421 2139.8427 2152.5876 2161.9512 2178.5976 
14:31:50.345124 1967 2215 2116.6938 2102.6484 2130.7392 2128.3983 2133.0801 2073.5172 2114.3529 2127.8781 2130.7392 2135.421 2139.5826 2153.8881 2162.2113 2178.0774 
14:31:50.351919 1958 2174 2117.7342 2100.8277 2133.8604 2131.5195 2134.3806 2072.4768 2113.5726 2129.9589 2130.219 2134.1205 2140.8831 2155.9689 2163.5118 2177.037 
14:31:50.359907 1962 2178 2116.6938 2099.5272 2131.5195 2128.9185 2135.6811 2039.7042 2110.7115 2130.4791 2130.219 2133.8604 2139.5826 2152.8477 2164.2921 2177.8173 
14:31:50.367904 1968 2163 2115.1332 2101.3479 2129.9589 2128.1382 2134.6407 2026.6992 2114.0928 2130.4791 2130.7392 2133.8604 2139.3225 2153.3679 2165.0724 2176.5168 
14:31:50.376099 1965 2118 2116.4337 2105.7696 2132.0397 2128.3983 2135.9412 2046.2067 2109.6711 2130.7392 2130.4791 2134.1205 2140.3629 2150.7669 2167.1532 2169.234 
14:31:50.383917 1979 2101 2102.1282 2113.0524 2132.5599 2128.9185 2142.9639 2043.6057 2106.5499 2123.4564 2128.1382 2134.3806 2136.7215 2139.3225 2159.8704 2141.9235 
14:31:50.391915 1984 2086 2092.2444 2114.0928 2128.6584 2125.2771 2139.5826 2009.5326 2103.4287 2120.0751 2127.0978 2133.6003 2132.5599 2135.6811 2158.83 2128.9185 
14:31:50.399905 1992 2061 2096.6661 2118.7746 2136.2013 2133.3402 2140.3629 2028.2598 2110.7115 2123.4564 2128.9185 2133.3402 2134.9008 2142.4437 2163.5118 2120.5953 
14:31:50.407946 1995 2054 2096.9262 2130.7392 2142.9639 2135.9412 2147.3856 2046.7269 2104.209 2117.214 2127.8781 2134.1205 2134.6407 2138.2821 2160.9108 2099.7873 
14:31:50.414913 1995 2038 2083.6611 2137.5018 2138.5422 2135.6811 2150.5068 1983.5226 2101.0878 2108.6307 2126.3175 2135.1609 2125.7973 2125.2771 2150.5068 2073.7773 
14:31:50.422905 2003 2045 2097.4464 2118.5145 2130.4791 2136.2013 2139.3225 1944.7677 2108.8908 2117.9943 2128.9185 2135.1609 2130.4791 2142.4437 2160.9108 2097.9666 
14:31:50.430903 2032 2058 2116.4337 2098.4868 2126.8377 2140.1028 2131.5195 1986.9039 2124.4968 2136.4614 2133.6003 2135.9412 2142.7038 2161.9512 2173.3956 2115.1332 
14:31:50.438981 2039 2054 2122.6761 2095.8858 2121.6357 2138.2821 2127.3579 1997.568 2126.3175 2137.7619 2133.6003 2137.2417 2145.825 2166.1128 2171.835 2113.3125 
14:31:50.446912 2035 2046 2116.9539 2094.5853 2121.6357 2134.6407 2126.5776 1974.9393 2122.9362 2137.2417 2134.1205 2137.2417 2144.7846 2162.7315 2167.9335 2100.0474 
14:31:50.454901 2027 2047 2113.3125 2092.5045 2126.3175 2129.6988 2125.7973 1994.4468 2120.0751 2135.6811 2134.3806 2136.9816 2148.6861 2169.4941 2169.234 2092.2444 
14:31:50.462900 2028 2039 2116.9539 2091.4641 2129.6988 2126.5776 2123.1963 2041.0047 2115.6534 2141.1432 2135.421 2136.7215 2151.5472 2173.9158 2171.3148 2099.7873 
14:31:50.469950 2045 2035 2139.3225 2096.1459 2132.5599 2124.7569 2125.017 2103.6888 2110.7115 2139.5826 2134.1205 2135.9412 2151.027 2175.4764 2167.4133 2149.7265 
14:31:50.477925 2054 2038 2153.8881 2096.9262 2132.0397 2121.3756 2126.5776 2107.5903 2111.2317 2133.6003 2133.6003 2135.6811 2150.7669 2172.3552 2161.1709 2186.9208 
14:31:50.485906 2058 2031 2134.9008 2100.3075 2128.1382 2119.2948 2125.5372 2045.9466 2120.0751 2129.1786 2133.6003 2136.2013 2148.6861 2169.4941 2158.0497 2164.5522 
14:31:50.493909 2066 2030 2123.4564 2101.8681 2121.3756 2120.3352 2125.2771 1988.9847 2122.9362 2130.219 2132.82 2136.4614 2146.0851 2169.234 2158.5699 2147.9058 
14:31:50.501971 2080 2010 2129.4387 2104.4691 2121.6357 2127.3579 2131.7796 2028.78 2124.4968 2129.6988 2131.7796 2136.4614 2144.5245 2167.6734 2155.1886 2163.5118 
14:31:50.509923 2085 2000 2129.9589 2113.3125 2132.0397 2132.2998 2140.1028 2158.0497 2125.5372 2124.2367 2129.9589 2135.6811 2142.4437 2166.3729 2154.1482 2174.6961 
14:31:50.517906 2099 1957 2117.7342 2119.815 2138.022 2133.6003 2143.4841 2205.1278 2129.4387 2122.9362 2130.9993 2134.3806 2141.4033 2163.2517 2155.4487 2158.83 
14:31:50.525904 2107 1948 2120.8554 2121.1155 2129.4387 2130.4791 2138.2821 2114.0928 2128.1382 2118.7746 2130.219 2134.3806 2139.3225 2157.0093 2150.5068 2156.7492 
14:31:50.533968 2107 1917 2128.1382 2120.3352 2124.4968 2135.421 2136.2013 2061.0324 2131.2594 2119.0347 2128.3983 2134.6407 2136.7215 2151.8073 2143.7442 2161.1709 
14:31:50.541920 2108 1901 2129.9589 2127.618 2132.2998 2138.022 2140.8831 2141.9235 2130.7392 2116.6938 2127.0978 2133.6003 2134.1205 2153.628 2143.7442 2158.5699 
14:31:50.548913 2107 1886 2124.4968 2133.3402 2142.7038 2138.022 2146.0851 2192.3829 2131.7796 2115.9135 2128.9185 2132.5599 2135.6811 2152.0674 2141.6634 2133.0801 
14:31:50.556939 2101 1886 2125.017 2133.8604 2143.7442 2133.8604 2142.1836 2148.1659 2127.0978 2116.1736 2127.3579 2133.6003 2139.0624 2155.1886 2141.4033 2122.1559 
14:31:50.564955 2094 1880 2120.3352 2138.8023 2147.6457 2134.3806 2144.0043 2123.4564 2123.7165 2114.3529 2125.5372 2133.8604 2137.5018 2154.1482 2140.3629 2099.5272 
14:31:50.572916 2090 1885 2118.5145 2145.3048 2159.6103 2136.7215 2150.2467 2232.9585 2121.3756 2113.3125 2127.0978 2133.3402 2139.3225 2155.4487 2140.8831 2077.6788 
14:31:50.580914 2086 1896 2124.7569 2141.4033 2166.3729 2143.4841 2154.6684 2392.3998 2134.6407 2120.5953 2128.1382 2133.8604 2144.5245 2161.9512 2141.9235 2078.199 
14:31:50.588940 2074 1927 2140.3629 2116.9539 2149.2063 2138.022 2137.5018 2290.7007 2141.4033 2132.82 2129.9589 2135.1609 2150.5068 2180.1582 2154.9285 2112.2721 
14:31:50.596941 2071 1934 2144.2644 2102.3883 2138.2821 2130.9993 2126.8377 2102.9085 2143.4841 2134.9008 2131.7796 2135.1609 2152.8477 2191.6026 2163.7719 2129.9589 
14:31:50.604909 2062 1962 2148.426 2104.209 2145.825 2132.2998 2132.2998 2180.6784 2140.1028 2138.022 2132.82 2135.6811 2155.1886 2191.0824 2166.1128 2135.6811 
14:31:50.611909 2061 1982 2148.6861 2104.209 2138.5422 2133.8604 2132.5599 2225.1555 2141.1432 2138.8023 2132.2998 2135.6811 2154.1482 2187.9612 2165.3325 2144.0043 
14:31:50.619917 2054 2019 2140.1028 2094.8454 2118.2544 2124.2367 2120.8554 2077.1586 2130.9993 2136.9816 2132.5599 2135.421 2152.0674 2183.2794 2165.8527 2143.224 
14:31:50.627936 2047 2034 2130.9993 2099.7873 2120.5953 2123.1963 2124.2367 2111.2317 2126.3175 2130.7392 2131.2594 2135.421 2147.6457 2177.037 2162.9916 2133.0801 
14:31:50.635909 2038 2063 2126.5776 2106.2898 2132.82 2126.5776 2131.7796 2236.5999 2126.5776 2130.4791 2131.5195 2135.6811 2144.0043 2170.0143 2161.6911 2119.5549 
14:31:50.643910 2033 2077 2127.8781 2105.2494 2130.9993 2125.7973 2129.6988 2191.0824 2127.0978 2129.6988 2131.7796 2135.1609 2142.9639 2168.4537 2160.6507 2116.6938 
14:31:50.651982 2028 2091 2128.3983 2103.6888 2127.3579 2126.3175 2127.618 2101.3479 2123.9766 2130.9993 2132.2998 2134.9008 2141.9235 2163.2517 2157.0093 2114.3529 
14:31:50.659922 2019 2123 2128.6584 2106.2898 2128.6584 2127.3579 2127.8781 2119.815 2121.8958 2132.0397 2130.9993 2135.9412 2141.6634 2160.3906 2157.5295 2110.1913 
14:31:50.666910 2013 2134 2127.618 2105.5095 2128.6584 2125.7973 2128.1382 2127.3579 2123.9766 2132.2998 2130.219 2135.9412 2143.224 2160.9108 2158.5699 2101.0878 
14:31:50.675909 2005 2154 2131.7796 2104.4691 2127.8781 2122.9362 2127.3579 2115.6534 2120.5953 2130.4791 2130.9993 2134.3806 2142.1836 2161.1709 2157.5295 2103.9489 
14:31:50.682967 2002 2168 2129.9589 2103.4287 2128.1382 2126.3175 2128.6584 2099.7873 2122.9362 2132.0397 2131.5195 2134.1205 2141.6634 2160.3906 2157.0093 2104.9893 
14:31:50.690926 1999 2186 2131.2594 2101.0878 2126.3175 2123.9766 2127.3579 2091.204 2120.8554 2134.3806 2130.7392 2134.3806 2145.3048 2163.2517 2160.6507 2111.2317 
14:31:50.698910 1992 2196 2130.4791 2101.8681 2126.8377 2123.9766 2129.4387 2099.007 2124.7569 2133.0801 2130.9993 2133.8604 2145.0447 2162.2113 2159.8704 2112.012 
14:31:50.706909 1979 2169 2129.6988 2101.0878 2126.0574 2121.3756 2128.3983 2098.4868 2122.1559 2130.4791 2130.7392 2134.3806 2142.4437 2160.3906 2161.6911 2119.0347 
14:31:50.715099 1978 2165 2127.0978 2101.0878 2126.0574 2123.7165 2130.7392 2099.2671 2123.4564 2131.2594 2130.4791 2135.421 2141.9235 2159.0901 2162.7315 2117.4741 
14:31:50.722917 1975 2155 2129.1786 2102.1282 2123.9766 2122.1559 2129.4387 2071.6965 2119.815 2133.0801 2132.2998 2135.421 2143.224 2157.5295 2163.5118 2117.214 
14:31:50.730911 1977 2134 2126.5776 2106.0297 2127.3579 2122.9362 2130.9993 2074.2975 2120.8554 2134.6407 2133.0801 2135.6811 2140.623 2152.8477 2160.9108 2108.1105 
14:31:50.737914 1986 2107 2122.6761 2107.8504 2128.1382 2121.8958 2130.219 2073.7773 2116.9539 2132.2998 2131.7796 2135.6811 2137.7619 2152.5876 2160.9108 2105.5095 
14:31:50.746127 1991 2096 2114.0928 2109.6711 2124.7569 2123.1963 2129.6988 2010.0528 2113.8327 2130.4791 2130.7392 2134.9008 2133.8604 2145.5649 2157.2694 2090.4237 
14:31:50.753920 1992 2076 2114.613 2110.9716 2127.0978 2124.7569 2131.5195 2022.2775 2113.3125 2128.9185 2130.9993 2134.9008 2135.6811 2145.825 2156.7492 2085.4818 
14:31:50.761912 2002 2071 2113.3125 2112.2721 2130.7392 2124.4968 2134.6407 2069.6157 2110.7115 2127.618 2131.7796 2135.421 2136.7215 2142.9639 2157.2694 2077.6788 
14:31:50.769915 2007 2050 2109.1509 2116.4337 2128.3983 2125.2771 2134.3806 2027.4795 2108.1105 2121.8958 2129.9589 2134.9008 2134.6407 2141.4033 2154.4083 2063.6334 
14:31:50.777945 2012 2048 2108.8908 2116.1736 2127.8781 2127.0978 2133.0801 1999.9089 2110.9716 2125.7973 2129.4387 2134.3806 2134.9008 2142.9639 2155.1886 2043.0855 
14:31:50.785916 2019 2044 2115.3933 2110.7115 2131.7796 2131.5195 2131.5195 2044.9062 2121.3756 2132.5599 2131.2594 2134.6407 2141.4033 2153.3679 2159.0901 2036.583 
14:31:50.793914 2027 2035 2119.0347 2100.3075 2125.017 2128.1382 2123.7165 2003.5503 2124.7569 2136.9816 2134.1205 2134.6407 2146.8654 2160.1305 2162.9916 2044.9062 
14:31:50.801913 2039 2042 2121.6357 2099.007 2119.0347 2127.0978 2121.8958 1965.8358 2129.1786 2136.7215 2132.5599 2134.6407 2146.3452 2161.6911 2161.1709 2045.9466 
14:31:50.809944 2045 2048 2129.1786 2099.2671 2122.6761 2127.618 2124.4968 2038.4037 2128.6584 2138.8023 2132.2998 2135.421 2146.8654 2166.8931 2163.2517 2044.386 
14:31:50.816917 2053 2053 2125.7973 2101.3479 2125.7973 2128.1382 2128.9185 2071.6965 2130.4791 2138.2821 2134.3806 2135.6811 2147.3856 2167.6734 2162.9916 2035.8027 
14:31:50.824913 2074 2053 2122.9362 2101.3479 2124.4968 2123.1963 2127.0978 2056.3506 2126.0574 2135.9412 2134.9008 2135.1609 2146.8654 2167.1532 2162.2113 2046.4668 
14:31:50.832912 2082 2047 2123.4564 2102.3883 2127.3579 2124.4968 2126.5776 2074.2975 2124.7569 2136.4614 2134.3806 2135.9412 2144.7846 2165.8527 2160.1305 2052.7092 
14:31:50.840949 2085 2028 2132.82 2105.5095 2128.9185 2123.9766 2126.8377 2091.204 2120.8554 2135.1609 2133.0801 2136.9816 2144.2644 2167.4133 2160.1305 2062.8531 
14:31:50.848910 2083 2019 2134.3806 2106.5499 2127.618 2124.4968 2128.3983 2080.5399 2124.2367 2135.1609 2134.6407 2136.4614 2143.4841 2161.6911 2156.7492 2073.7773 
14:31:50.856906 2083 2009 2142.1836 2109.411 2126.3175 2123.7165 2128.3983 2102.9085 2120.3352 2130.219 2133.8604 2135.6811 2141.1432 2157.7896 2153.1078 2098.7469 
14:31:50.864904 2094 1994 2147.1255 2111.2317 2125.2771 2125.2771 2129.9589 2118.5145 2119.5549 2128.3983 2131.7796 2135.6811 2138.2821 2154.6684 2148.9462 2111.7519 
14:31:50.871952 2101 1985 2143.7442 2112.012 2122.416 2123.1963 2128.6584 2089.3833 2122.1559 2126.5776 2129.9589 2135.9412 2138.8023 2155.4487 2146.0851 2114.613 
14:31:50.879910 2107 1955 2134.6407 2111.4918 2122.9362 2125.5372 2128.9185 2070.396 2128.3983 2127.8781 2130.7392 2134.9008 2140.3629 2155.1886 2145.0447 2103.1686 
14:31:50.887908 2107 1948 2135.421 2112.5322 2127.618 2127.618 2130.4791 2108.8908 2125.5372 2129.4387 2130.9993 2133.8604 2142.7038 2159.3502 2147.3856 2097.4464 
14:31:50.895920 2107 1919 2137.7619 2115.9135 2132.0397 2128.3983 2133.8604 2144.5245 2125.2771 2128.3983 2129.1786 2133.3402 2140.3629 2157.7896 2145.5649 2088.603 
14:31:50.903953 2100 1905 2136.4614 2116.9539 2133.6003 2127.618 2133.8604 2158.5699 2126.8377 2128.1382 2129.1786 2134.1205 2141.6634 2159.0901 2146.3452 2082.1005 
14:31:50.911911 2098 1905 2134.3806 2122.1559 2136.7215 2127.3579 2137.5018 2196.5445 2127.3579 2124.7569 2129.4387 2132.82 2143.4841 2159.3502 2146.3452 2075.598 
14:31:50.919908 2090 1897 2130.9993 2123.4564 2138.8023 2127.0978 2139.3225 2202.0066 2126.0574 2125.7973 2130.9993 2132.82 2142.4437 2157.7896 2146.6053 2060.7723 
14:31:50.927908 2080 1905 2132.5599 2126.3175 2139.5826 2128.9185 2139.5826 2185.6203 2128.1382 2124.7569 2130.4791 2134.3806 2139.8427 2158.83 2145.825 2043.0855 
14:31:50.935974 2077 1911 2135.421 2127.3579 2145.5649 2134.6407 2142.4437 2241.2817 2132.2998 2129.4387 2132.0397 2134.6407 2142.4437 2163.2517 2147.1255 2027.9997 
14:31:50.942914 2075 1936 2140.623 2121.3756 2142.1836 2133.0801 2137.2417 2243.3625 2134.9008 2132.5599 2133.8604 2134.3806 2144.5245 2170.2744 2151.027 2037.6234 
14:31:50.950908 2064 1948 2140.3629 2110.4514 2132.82 2129.6988 2128.1382 2139.0624 2136.7215 2135.9412 2135.421 2134.3806 2142.9639 2168.7138 2154.6684 2049.0678 
14:31:50.958953 2065 1962 2144.2644 2110.9716 2135.1609 2130.219 2128.9185 2195.5041 2133.0801 2135.421 2133.0801 2133.6003 2145.5649 2170.5345 2156.4891 2061.8127 
14:31:50.966971 2053 1989 2141.4033 2112.2721 2137.7619 2131.5195 2133.0801 2260.269 2133.3402 2136.9816 2132.5599 2133.8604 2146.8654 2167.6734 2153.1078 2053.7496 
14:31:50.974908 2053 2012 2139.3225 2106.5499 2126.8377 2124.7569 2125.2771 2155.1886 2128.6584 2134.9008 2134.1205 2135.9412 2144.0043 2167.1532 2152.5876 2059.4718 
14:31:50.982903 2045 2040 2137.2417 2104.4691 2125.5372 2124.7569 2124.7569 2111.7519 2126.5776 2131.5195 2134.1205 2135.6811 2141.4033 2164.2921 2151.027 2063.6334 
14:31:50.990920 2040 2056 2136.2013 2106.81 2128.3983 2124.4968 2126.8377 2162.9916 2122.1559 2132.2998 2132.2998 2135.6811 2142.7038 2162.9916 2151.2871 2063.1132 
14:31:50.998956 2032 2081 2128.3983 2107.0701 2125.2771 2125.5372 2126.0574 2143.7442 2127.8781 2133.6003 2131.5195 2135.421 2142.7038 2161.6911 2150.5068 2053.4895 
14:31:51.005909 2026 2093 2130.9993 2104.4691 2124.7569 2124.7569 2123.4564 2127.3579 2124.7569 2132.2998 2132.82 2134.9008 2143.4841 2164.032 2153.1078 2053.7496 
14:31:51.013907 2017 2116 2135.6811 2105.5095 2129.4387 2127.0978 2128.3983 2166.8931 2127.3579 2132.0397 2133.3402 2135.1609 2143.7442 2162.9916 2152.5876 2050.6284 
14:31:51.021920 2014 2129 2135.6811 2106.5499 2126.8377 2123.7165 2128.1382 2138.5422 2127.3579 2134.9008 2132.5599 2135.6811 2143.4841 2161.1709 2153.3679 2048.5476 
14:31:51.029938 2007 2146 2134.3806 2107.3302 2125.7973 2125.2771 2129.1786 2111.2317 2129.4387 2134.6407 2132.0397 2134.9008 2143.4841 2164.032 2154.4083 2047.2471 
14:31:51.037911 2005 2158 2136.2013 2106.2898 2126.3175 2124.7569 2128.9185 2104.209 2126.8377 2133.6003 2133.0801 2135.1609 2145.5649 2163.5118 2155.1886 2050.1082 
14:31:51.045906 2003 2170 2134.3806 2107.5903 2125.7973 2121.8958 2128.6584 2101.3479 2125.2771 2132.0397 2132.82 2135.421 2144.0043 2157.2694 2154.9285 2054.5299 
14:31:51.053998 1996 2172 2133.0801 2108.3706 2124.7569 2122.6761 2128.1382 2106.0297 2122.1559 2132.5599 2132.5599 2134.6407 2142.1836 2157.0093 2156.7492 2056.8708 
14:31:51.061921 1986 2148 2131.7796 2108.1105 2124.7569 2124.4968 2126.8377 2106.0297 2121.3756 2134.3806 2133.0801 2134.9008 2140.8831 2156.229 2156.229 2053.4895 
14:31:51.068908 1988 2162 2128.9185 2107.5903 2126.0574 2124.2367 2127.0978 2102.1282 2124.4968 2134.3806 2132.82 2135.6811 2139.0624 2152.0674 2153.1078 2051.4087 
14:31:51.076904 1980 2140 2130.219 2108.1105 2126.5776 2122.6761 2128.1382 2101.3479 2119.5549 2133.8604 2131.2594 2135.6811 2137.7619 2149.4664 2153.628 2051.9289 
14:31:51.084999 1985 2110 2127.618 2108.6307 2127.3579 2126.3175 2129.6988 2096.1459 2119.2948 2133.0801 2131.5195 2135.421 2138.5422 2148.9462 2152.3275 2044.6461 
14:31:51.092922 1992 2106 2120.8554 2107.8504 2123.4564 2121.6357 2125.5372 2045.1663 2117.4741 2132.0397 2133.6003 2135.421 2137.5018 2144.0043 2150.7669 2036.583 
14:31:51.100907 1997 2078 2120.8554 2108.6307 2122.9362 2121.3756 2125.017 2033.7219 2120.3352 2130.219 2132.82 2134.6407 2137.2417 2145.5649 2151.8073 2025.3987 
14:31:51.108905 2001 2069 2127.8781 2107.8504 2124.4968 2121.3756 2124.4968 2079.4995 2114.613 2131.5195 2131.5195 2134.1205 2140.1028 2151.2871 2155.1886 2026.6992 
14:31:51.117111 2011 2064 2121.6357 2111.7519 2125.2771 2124.4968 2128.1382 2067.0147 2115.9135 2129.9589 2130.9993 2134.1205 2140.623 2146.8654 2151.5472 2020.1967 
14:31:51.124915 2013 2053 2118.2544 2111.4918 2122.6761 2124.4968 2128.6584 2014.4745 2116.9539 2128.3983 2131.5195 2134.6407 2140.8831 2148.1659 2153.628 2008.7523 
14:31:51.132912 2024 2048 2120.8554 2111.7519 2125.7973 2127.8781 2130.4791 2047.5072 2125.017 2132.5599 2132.82 2134.9008 2142.4437 2153.1078 2154.6684 1986.9039 
14:31:51.139905 2031 2045 2127.3579 2109.6711 2126.3175 2126.0574 2127.8781 2071.6965 2126.3175 2136.2013 2132.82 2135.1609 2145.3048 2157.5295 2156.229 1992.8862 
14:31:51.148111 2033 2041 2123.1963 2107.5903 2122.6761 2127.618 2127.618 2010.573 2130.4791 2137.5018 2132.82 2135.421 2144.0043 2155.4487 2155.4487 1992.6261 
14:31:51.155917 2042 2037 2128.9185 2107.5903 2122.6761 2128.1382 2126.3175 2010.0528 2132.2998 2136.2013 2132.82 2135.421 2144.7846 2160.1305 2155.4487 1991.8458 
14:31:51.163904 2048 2037 2132.0397 2110.4514 2125.2771 2127.618 2127.3579 2064.6738 2131.7796 2137.7619 2135.6811 2135.9412 2144.2644 2155.7088 2153.3679 1990.0251 
14:31:51.171906 2059 2034 2131.5195 2113.3125 2126.3175 2126.5776 2129.4387 2090.6838 2127.0978 2134.9008 2134.6407 2135.9412 2141.6634 2153.628 2154.1482 1998.8685 
14:31:51.179944 2065 2033 2128.6584 2109.1509 2126.0574 2125.5372 2127.3579 2065.194 2127.0978 2136.9816 2134.3806 2135.1609 2140.8831 2153.628 2152.3275 1996.7877 
14:31:51.187912 2072 2026 2129.6988 2109.9312 2125.5372 2123.4564 2123.9766 2065.194 2126.5776 2135.1609 2133.3402 2135.9412 2141.9235 2154.9285 2148.6861 1997.8281 
14:31:51.195905 2079 2021 2128.6584 2110.9716 2126.3175 2125.5372 2125.5372 2098.7469 2124.7569 2134.9008 2134.1205 2136.7215 2141.6634 2155.1886 2148.9462 2004.8508 
14:31:51.202904 2089 2014 2130.4791 2112.012 2127.0978 2126.8377 2126.8377 2116.4337 2122.416 2133.6003 2134.9008 2136.4614 2141.6634 2156.7492 2148.426 2010.573 
14:31:51.210947 2092 2006 2134.9008 2112.2721 2126.8377 2126.0574 2125.7973 2107.3302 2124.4968 2134.3806 2133.6003 2135.1609 2141.4033 2153.628 2146.3452 2016.2952 
14:31:51.226905 2100 1972 2136.2013 2113.5726 2126.8377 2126.0574 2127.618 2116.1736 2126.5776 2131.2594 2131.2594 2134.9008 2141.6634 2156.229 2146.6053 2031.6411 
14:31:51.234902 2100 1948 2139.0624 2112.5322 2126.5776 2125.2771 2129.9589 2126.5776 2130.7392 2131.2594 2134.1205 2134.3806 2142.4437 2155.9689 2145.0447 2032.4214 
14:31:51.242954 2099 1936 2141.4033 2115.1332 2126.8377 2124.7569 2132.0397 2141.6634 2131.5195 2129.9589 2132.82 2134.1205 2140.8831 2154.9285 2144.7846 2041.5249 
14:31:51.250915 2101 1927 2138.5422 2115.6534 2129.4387 2126.8377 2134.1205 2135.421 2129.6988 2131.2594 2132.2998 2133.8604 2142.4437 2156.7492 2145.5649 2039.7042 
14:31:51.258901 2092 1919 2140.3629 2117.9943 2129.9589 2126.3175 2133.0801 2140.623 2127.3579 2129.9589 2131.7796 2133.6003 2142.9639 2158.83 2144.0043 2032.9416 
14:31:51.265905 2096 1927 2137.7619 2120.8554 2131.7796 2127.618 2133.6003 2162.2113 2128.1382 2130.7392 2132.5599 2132.82 2139.8427 2153.1078 2141.1432 2022.0174 
14:31:51.273958 2083 1911 2136.7215 2122.9362 2134.1205 2126.5776 2134.3806 2181.9789 2123.7165 2129.1786 2132.5599 2133.3402 2138.5422 2152.5876 2143.4841 2021.2371 
14:31:51.281915 2078 1914 2132.2998 2123.9766 2140.623 2131.7796 2139.5826 2216.5722 2129.1786 2131.2594 2133.0801 2134.1205 2139.8427 2151.2871 2142.4437 1998.3483 
14:31:51.289902 2071 1946 2137.2417 2123.4564 2142.7038 2132.82 2136.7215 2266.5114 2130.7392 2134.1205 2132.5599 2134.6407 2141.9235 2153.8881 2142.4437 1989.2448 
14:31:51.297903 2070 1957 2136.9816 2118.5145 2133.8604 2129.9589 2129.4387 2171.835 2132.82 2133.8604 2131.7796 2134.1205 2140.3629 2154.1482 2142.4437 1989.765 
14:31:51.305948 2064 1976 2136.7215 2112.7923 2129.1786 2126.3175 2126.3175 2114.3529 2129.6988 2135.9412 2134.3806 2134.3806 2141.4033 2156.7492 2145.825 1992.1059 
14:31:51.313913 2062 1991 2136.7215 2118.7746 2139.5826 2131.2594 2134.1205 2254.8069 2133.8604 2137.2417 2134.6407 2134.6407 2141.4033 2157.5295 2144.0043 1981.4418 
14:31:51.321903 2053 2018 2139.0624 2115.6534 2134.6407 2127.8781 2127.8781 2229.057 2128.1382 2137.7619 2134.3806 2134.6407 2144.0043 2160.3906 2146.0851 1988.9847 
14:31:51.329959 2048 2027 2137.7619 2108.3706 2122.416 2125.5372 2122.9362 2077.4187 2130.7392 2135.421 2133.6003 2134.3806 2144.7846 2161.431 2146.3452 2001.7296 
14:31:51.336979 2042 2053 2136.7215 2109.411 2126.3175 2125.7973 2127.618 2124.7569 2131.5195 2136.7215 2134.1205 2134.9008 2144.2644 2160.6507 2147.6457 1998.8685 
14:31:51.344914 2035 2066 2136.4614 2114.613 2133.0801 2127.3579 2132.2998 2212.4106 2133.6003 2135.421 2132.82 2135.6811 2143.4841 2160.9108 2148.1659 1991.3256 
14:31:51.352897 2029 2076 2136.4614 2110.1913 2127.3579 2124.7569 2127.8781 2128.1382 2130.7392 2135.6811 2133.3402 2135.6811 2144.5245 2159.6103 2148.426 1994.4468 
14:31:51.360909 2026 2104 2134.9008 2110.9716 2124.4968 2126.0574 2128.3983 2088.603 2131.7796 2135.9412 2135.1609 2134.6407 2143.4841 2157.2694 2147.3856 1998.0882 
14:31:51.368950 2023 2113 2132.82 2114.8731 2127.8781 2129.6988 2130.7392 2136.9816 2130.9993 2137.2417 2134.9008 2135.421 2141.9235 2155.9689 2147.6457 1992.366 
14:31:51.376910 2012 2129 2133.3402 2114.8731 2128.3983 2128.9185 2129.1786 2140.1028 2127.8781 2134.9008 2134.3806 2136.2013 2139.8427 2154.9285 2147.9058 1992.6261 
14:31:51.384897 2007 2141 2132.5599 2112.5322 2127.8781 2128.3983 2129.9589 2130.4791 2129.1786 2133.8604 2136.9816 2134.9008 2138.5422 2151.027 2145.825 1996.5276 
14:31:51.392951 2000 2159 2133.3402 2110.7115 2123.9766 2124.2367 2127.8781 2108.8908 2123.9766 2134.3806 2135.1609 2133.8604 2139.3225 2148.6861 2146.6053 2001.9897 
14:31:51.400934 2001 2165 2132.82 2110.9716 2125.2771 2124.7569 2127.8781 2110.1913 2121.8958 2134.6407 2131.7796 2134.9008 2140.1028 2148.426 2146.8654 1997.568 
14:31:51.407949 1993 2144 2134.3806 2111.2317 2125.7973 2123.4564 2126.5776 2109.9312 2120.8554 2133.0801 2132.82 2134.1205 2138.8023 2149.4664 2147.1255 1995.7473 
14:31:51.415905 1998 2158 2131.5195 2110.4514 2124.2367 2125.7973 2126.0574 2086.7823 2124.7569 2133.0801 2134.6407 2132.82 2139.3225 2151.027 2145.0447 1990.8054 
14:31:51.423942 1985 2125 2133.6003 2109.6711 2124.7569 2123.9766 2125.2771 2105.2494 2119.0347 2135.1609 2133.0801 2134.6407 2141.4033 2152.3275 2146.6053 1998.3483 
14:31:51.431919 1989 2116 2130.9993 2111.2317 2128.3983 2125.2771 2128.3983 2122.416 2123.7165 2136.7215 2133.3402 2135.421 2140.3629 2147.6457 2147.9058 1997.568 
14:31:51.439906 1991 2108 2129.1786 2109.411 2125.017 2123.4564 2125.2771 2081.5803 2124.7569 2134.9008 2134.3806 2134.3806 2140.623 2149.7265 2150.7669 1996.7877 
14:31:51.447906 1996 2081 2126.8377 2109.1509 2122.9362 2125.017 2128.1382 2067.5349 2126.5776 2134.6407 2133.6003 2134.6407 2140.8831 2150.2467 2148.1659 1984.0428 
14:31:51.456108 1999 2077 2131.2594 2110.4514 2123.1963 2122.9362 2128.9185 2082.6207 2125.2771 2134.1205 2133.6003 2135.1609 2141.9235 2151.8073 2149.9866 1988.2044 
14:31:51.463909 2006 2064 2127.618 2114.0928 2123.9766 2122.416 2126.8377 2051.9289 2125.5372 2133.8604 2135.421 2134.3806 2138.8023 2148.9462 2151.8073 1985.3433 
14:31:51.470905 2014 2065 2125.2771 2115.1332 2123.4564 2124.4968 2126.0574 2025.1386 2123.9766 2131.5195 2134.1205 2134.1205 2137.5018 2151.8073 2151.5472 1977.8004 
14:31:51.478903 2018 2045 2123.7165 2113.0524 2123.4564 2126.5776 2129.4387 2048.2875 2126.3175 2134.3806 2132.82 2135.9412 2136.9816 2148.1659 2147.3856 1960.8939 
14:31:51.487139 2026 2045 2124.7569 2114.3529 2127.3579 2127.8781 2128.3983 2077.9389 2128.1382 2135.421 2133.8604 2136.2013 2138.5422 2149.4664 2147.9058 1956.4722 
14:31:51.494924 2036 2039 2124.2367 2112.7923 2127.0978 2127.618 2125.2771 2054.0097 2126.0574 2136.4614 2136.4614 2134.9008 2139.8427 2150.5068 2151.027 1952.3106 
14:31:51.502938 2040 2038 2126.5776 2112.7923 2123.9766 2128.1382 2127.3579 2037.8835 2129.1786 2134.6407 2134.9008 2134.3806 2139.5826 2148.9462 2147.3856 1942.6869 
14:31:51.510916 2052 2038 2131.2594 2113.0524 2123.4564 2126.5776 2124.7569 2044.386 2126.8377 2136.7215 2134.3806 2135.421 2139.5826 2148.1659 2146.0851 1941.1263 
14:31:51.518946 2057 2035 2130.7392 2116.1736 2128.6584 2129.9589 2125.7973 2075.8581 2126.0574 2136.2013 2134.3806 2135.421 2140.3629 2148.9462 2145.825 1939.8258 
14:31:51.526907 2066 2030 2132.2998 2113.8327 2128.1382 2128.3983 2127.0978 2085.4818 2125.5372 2135.421 2133.6003 2134.6407 2141.6634 2150.7669 2146.0851 1947.1086 
14:31:51.533912 2070 2027 2131.2594 2112.2721 2126.0574 2127.0978 2126.8377 2078.199 2129.6988 2136.7215 2134.1205 2134.6407 2140.8831 2152.3275 2143.224 1950.4899 
14:31:51.541904 2075 2022 2134.9008 2113.0524 2125.7973 2125.017 2124.7569 2094.0651 2126.3175 2136.4614 2133.3402 2135.421 2141.9235 2156.7492 2144.2644 1960.1136 
14:31:51.549940 2085 2014 2135.1609 2113.0524 2126.8377 2128.1382 2129.1786 2116.4337 2128.9185 2135.421 2133.3402 2136.2013 2143.4841 2155.7088 2143.7442 1962.4545 
14:31:51.557906 2089 2006 2137.5018 2114.0928 2126.8377 2125.5372 2131.2594 2125.017 2128.3983 2134.1205 2133.6003 2136.2013 2143.4841 2155.4487 2145.3048 1976.76 
14:31:51.565915 2095 1989 2136.2013 2114.613 2127.618 2124.7569 2130.4791 2113.3125 2130.4791 2136.7215 2133.6003 2135.1609 2141.6634 2154.1482 2145.3048 1981.7019 
14:31:51.573915 2097 1979 2139.8427 2114.8731 2126.3175 2124.4968 2128.6584 2112.2721 2127.618 2132.82 2131.2594 2135.421 2140.8831 2153.1078 2144.5245 1986.3837 
14:31:51.581952 2096 1954 2137.5018 2115.3933 2127.3579 2128.3983 2132.0397 2127.8781 2129.1786 2130.9993 2132.2998 2135.1609 2139.8427 2147.9058 2142.4437 1988.7246 
14:31:51.589905 2095 1944 2137.2417 2117.4741 2127.3579 2127.0978 2131.5195 2139.0624 2126.3175 2132.0397 2133.0801 2134.3806 2139.0624 2148.1659 2142.1836 1997.3079 
14:31:51.596904 2094 1922 2136.7215 2119.815 2128.3983 2127.3579 2132.2998 2144.7846 2127.8781 2133.6003 2131.7796 2134.1205 2135.421 2145.3048 2137.2417 1986.9039 
14:31:51.604904 2089 1919 2137.5018 2119.0347 2128.6584 2127.0978 2129.6988 2149.7265 2125.2771 2132.0397 2132.5599 2135.1609 2134.9008 2145.825 2136.2013 1979.6211 
14:31:51.612939 2092 1935 2134.9008 2121.6357 2130.7392 2128.1382 2130.7392 2155.4487 2123.9766 2129.4387 2133.3402 2135.1609 2136.9816 2146.0851 2136.4614 1972.5984 
14:31:51.620905 2083 1925 2136.2013 2122.416 2131.5195 2127.618 2130.7392 2165.5926 2122.9362 2133.0801 2133.8604 2134.6407 2140.623 2147.1255 2136.9816 1964.0151 
14:31:51.628906 2074 1938 2136.7215 2124.2367 2133.8604 2129.9589 2131.5195 2198.1051 2128.9185 2134.1205 2131.2594 2133.6003 2140.1028 2148.426 2135.421 1951.2702 
14:31:51.636901 2072 1960 2135.6811 2122.9362 2139.0624 2132.2998 2132.0397 2254.0266 2127.618 2134.6407 2131.2594 2133.6003 2140.3629 2151.5472 2137.5018 1943.9874 
14:31:51.644936 2069 1968 2136.9816 2118.7746 2132.82 2129.6988 2128.1382 2182.4991 2128.1382 2132.2998 2133.6003 2133.6003 2140.8831 2154.9285 2138.8023 1950.4899 
14:31:51.652907 2060 1984 2136.4614 2114.8731 2128.1382 2128.6584 2126.0574 2117.4741 2133.8604 2135.6811 2136.2013 2134.6407 2142.9639 2154.6684 2140.8831 1952.0505 
14:31:51.660903 2060 2000 2140.3629 2121.6357 2137.7619 2131.2594 2134.3806 2258.4483 2136.4614 2134.6407 2133.8604 2135.6811 2143.4841 2156.4891 2141.6634 1948.9293 
14:31:51.667902 2051 2020 2139.8427 2119.815 2137.7619 2130.4791 2137.5018 2252.9862 2134.1205 2135.1609 2132.5599 2135.9412 2142.1836 2155.1886 2140.1028 1942.6869 
14:31:51.675938 2047 2033 2140.1028 2113.5726 2124.7569 2125.5372 2128.9185 2089.3833 2131.7796 2134.9008 2134.1205 2135.6811 2140.623 2157.0093 2142.9639 1956.9924 
14:31:51.683898 2037 2056 2135.9412 2116.6938 2126.3175 2128.9185 2129.4387 2107.8504 2133.3402 2135.1609 2136.9816 2135.1609 2139.3225 2155.1886 2146.0851 1955.952 
14:31:51.691897 2034 2067 2136.2013 2120.5953 2131.2594 2128.9185 2131.7796 2196.8046 2129.6988 2133.8604 2135.6811 2134.1205 2138.5422 2152.5876 2144.5245 1949.9697 
14:31:51.699894 2026 2086 2134.1205 2117.9943 2128.1382 2127.0978 2129.1786 2138.022 2131.2594 2134.9008 2133.0801 2133.6003 2137.7619 2149.7265 2140.3629 1949.9697 
14:31:51.707944 2023 2099 2134.9008 2116.6938 2126.8377 2125.2771 2127.3579 2108.3706 2125.5372 2135.9412 2132.82 2134.6407 2139.0624 2150.2467 2142.1836 1958.553 
14:31:51.715901 2018 2123 2131.2594 2117.4741 2128.6584 2128.6584 2130.9993 2141.1432 2127.8781 2137.2417 2133.3402 2134.9008 2138.2821 2145.825 2140.3629 1948.4091 
14:31:51.723895 2014 2131 2131.7796 2116.1736 2125.2771 2126.3175 2126.3175 2112.012 2126.5776 2136.9816 2133.3402 2134.9008 2137.2417 2145.825 2139.5826 1946.3283 
14:31:51.730940 2010 2150 2132.5599 2117.9943 2127.8781 2128.1382 2126.3175 2117.7342 2128.3983 2134.6407 2132.82 2134.6407 2138.2821 2148.6861 2139.5826 1946.8485 
14:31:51.738952 2004 2152 2134.1205 2115.3933 2128.3983 2126.3175 2126.5776 2125.2771 2124.2367 2134.9008 2132.5599 2134.6407 2140.1028 2148.6861 2141.6634 1950.4899 
14:31:51.746908 1993 2126 2132.0397 2114.3529 2126.5776 2127.0978 2128.3983 2129.1786 2127.3579 2135.421 2133.6003 2134.6407 2139.0624 2145.0447 2141.1432 1951.0101 
14:31:51.754901 2001 2153 2135.1609 2114.613 2125.7973 2125.017 2125.7973 2117.4741 2125.5372 2135.6811 2134.6407 2134.1205 2140.623 2150.5068 2143.224 1957.7727 
14:31:51.762962 1998 2142 2136.4614 2113.5726 2128.3983 2124.2367 2127.3579 2100.0474 2125.5372 2136.4614 2133.8604 2133.6003 2142.9639 2153.3679 2143.7442 1956.4722 
14:31:51.770932 1997 2118 2136.2013 2112.5322 2127.8781 2124.7569 2129.1786 2112.2721 2127.0978 2134.3806 2132.82 2135.1609 2143.224 2152.5876 2144.2644 1960.1136 
14:31:51.778899 1998 2112 2130.219 2113.3125 2122.416 2124.7569 2128.1382 2084.7015 2127.0978 2131.7796 2134.1205 2136.7215 2139.8427 2148.9462 2144.2644 1959.0732 
14:31:51.786898 1998 2083 2129.9589 2113.0524 2122.416 2123.7165 2127.618 2072.4768 2126.5776 2132.82 2135.1609 2134.9008 2141.1432 2153.3679 2144.0043 1955.6919 
14:31:51.794971 1999 2077 2131.2594 2114.3529 2126.3175 2123.1963 2128.6584 2110.7115 2125.017 2136.2013 2134.6407 2133.3402 2141.6634 2151.027 2143.7442 1951.0101 
14:31:51.801919 2010 2057 2126.5776 2118.5145 2127.0978 2126.3175 2129.4387 2100.5676 2126.3175 2134.3806 2133.8604 2134.9008 2137.5018 2144.0043 2141.9235 1947.8889 
14:31:51.809897 2013 2056 2122.9362 2117.214 2123.4564 2125.2771 2128.1382 2040.4845 2125.017 2133.0801 2134.9008 2135.1609 2134.3806 2139.8427 2141.1432 1940.346 
14:31:51.817897 2029 2055 2123.9766 2117.7342 2124.7569 2126.8377 2128.9185 2031.1209 2127.618 2132.5599 2134.3806 2133.0801 2135.1609 2141.1432 2138.8023 1923.1794 
14:31:51.825950 2028 2043 2126.3175 2117.214 2126.0574 2126.5776 2125.7973 2050.6284 2122.9362 2134.9008 2134.9008 2134.1205 2135.9412 2143.7442 2140.3629 1916.6769 
14:31:51.833917 2031 2042 2124.7569 2116.9539 2126.8377 2129.1786 2126.0574 2059.2117 2124.2367 2135.6811 2134.9008 2136.7215 2135.9412 2144.0043 2140.1028 1910.1744 
14:31:51.841899 2036 2035 2128.3983 2115.3933 2124.4968 2126.8377 2124.7569 2062.8531 2125.017 2134.6407 2133.6003 2135.6811 2138.5422 2147.3856 2141.9235 1911.4749 
14:31:51.849900 2041 2031 2126.5776 2116.9539 2125.5372 2127.618 2126.0574 2065.7142 2128.9185 2135.9412 2134.6407 2133.6003 2140.1028 2148.9462 2141.1432 1902.1113 
14:31:51.858070 2059 2037 2133.0801 2117.214 2127.8781 2126.3175 2126.5776 2083.9212 2127.0978 2137.2417 2135.1609 2136.2013 2143.4841 2152.5876 2142.9639 1906.7931 
14:31:51.864911 2063 2032 2133.6003 2116.6938 2128.6584 2127.8781 2128.6584 2089.1232 2130.7392 2138.5422 2134.3806 2138.2821 2142.9639 2148.426 2141.1432 1907.8335 
14:31:51.872899 2072 2028 2131.5195 2116.1736 2126.8377 2126.0574 2127.0978 2063.3733 2130.219 2134.9008 2133.8604 2135.421 2139.8427 2148.9462 2140.3629 1915.6365 
14:31:51.880898 2074 2022 2130.4791 2114.8731 2126.5776 2128.3983 2128.9185 2066.7546 2132.0397 2136.2013 2134.6407 2134.3806 2138.8023 2151.027 2140.3629 1915.8966 
14:31:51.889087 2080 2009 2138.022 2118.2544 2126.5776 2128.9185 2131.2594 2120.3352 2129.6988 2134.6407 2132.5599 2135.9412 2140.3629 2152.8477 2140.3629 1927.0809 
14:31:51.896911 2084 2001 2136.7215 2120.0751 2128.1382 2129.1786 2132.5599 2147.3856 2129.9589 2134.9008 2132.82 2135.9412 2138.5422 2149.2063 2138.022 1936.7046 
14:31:51.904898 2090 1986 2135.1609 2119.815 2127.618 2126.3175 2129.9589 2127.8781 2127.618 2133.8604 2133.0801 2134.6407 2136.9816 2149.9866 2139.0624 1945.8081 
14:31:51.912899 2095 1982 2138.2821 2119.815 2126.3175 2126.5776 2129.4387 2103.9489 2128.3983 2133.6003 2132.82 2134.6407 2135.421 2146.8654 2137.5018 1946.0682 
14:31:51.920942 2095 1958 2140.8831 2119.0347 2126.0574 2127.618 2127.8781 2108.1105 2125.7973 2132.5599 2133.8604 2135.421 2135.9412 2146.0851 2134.3806 1951.7904 
14:31:51.927910 2092 1949 2137.7619 2119.2948 2126.5776 2128.1382 2128.6584 2125.2771 2123.4564 2130.7392 2133.8604 2135.1609 2136.7215 2145.5649 2133.0801 1952.8308 
14:31:51.935905 2092 1945 2136.7215 2119.0347 2127.618 2127.3579 2129.4387 2150.2467 2122.9362 2132.2998 2133.8604 2135.421 2137.2417 2143.224 2134.6407 1947.8889 
14:31:51.943900 2084 1933 2136.9816 2122.6761 2130.219 2127.0978 2130.9993 2172.8754 2126.5776 2131.2594 2132.82 2134.6407 2135.9412 2142.4437 2133.8604 1942.1667 
14:31:51.951943 2084 1937 2134.9008 2121.3756 2130.9993 2128.6584 2129.6988 2160.6507 2128.3983 2132.2998 2132.82 2134.1205 2139.5826 2146.6053 2133.6003 1932.0228 
14:31:51.959907 2084 1938 2138.2821 2121.6357 2130.4791 2128.3983 2129.4387 2162.9916 2128.3983 2130.4791 2132.2998 2134.1205 2140.3629 2147.9058 2132.82 1926.5607 
14:31:51.967899 2075 1940 2138.022 2121.3756 2131.7796 2128.9185 2130.4791 2162.9916 2130.4791 2134.1205 2133.6003 2135.1609 2138.5422 2145.5649 2133.3402 1918.7577 
14:31:51.975898 2069 1966 2139.3225 2125.017 2134.9008 2129.6988 2133.0801 2209.8096 2130.4791 2134.3806 2133.8604 2134.9008 2139.8427 2152.5876 2138.022 1916.6769 
14:31:51.983937 2065 1979 2138.022 2123.9766 2135.6811 2132.82 2136.2013 2222.8146 2133.8604 2133.8604 2135.1609 2134.3806 2143.4841 2155.1886 2137.7619 1908.0936 
14:31:51.990920 2057 1993 2138.5422 2120.0751 2130.9993 2130.219 2131.2594 2159.6103 2132.82 2134.3806 2135.6811 2135.6811 2142.1836 2153.1078 2136.9816 1916.937 
14:31:51.998899 2056 2007 2135.6811 2124.2367 2135.9412 2132.5599 2133.8604 2192.643 2134.6407 2136.9816 2134.6407 2135.6811 2138.022 2150.2467 2136.7215 1916.1567 
14:31:52.006899 2045 2021 2137.5018 2126.8377 2137.7619 2130.9993 2133.8604 2219.6934 2130.4791 2134.3806 2133.6003 2134.9008 2139.8427 2153.3679 2137.2417 1914.0759 
14:31:52.014943 2045 2042 2133.0801 2122.1559 2130.9993 2130.7392 2130.9993 2122.6761 2133.6003 2132.0397 2133.3402 2135.421 2139.5826 2148.1659 2133.6003 1908.8739 
14:31:52.022908 2039 2061 2132.2998 2119.0347 2127.3579 2129.9589 2128.9185 2091.4641 2129.4387 2135.421 2134.1205 2136.4614 2135.421 2144.0043 2135.6811 1911.735 
14:31:52.030899 2034 2068 2133.6003 2122.6761 2133.0801 2133.8604 2132.5599 2167.6734 2131.2594 2136.4614 2134.1205 2136.4614 2134.6407 2144.0043 2134.9008 1907.3133 
14:31:52.038898 2030 2082 2133.6003 2121.1155 2130.219 2129.9589 2128.6584 2152.3275 2127.618 2134.6407 2134.9008 2135.1609 2138.5422 2144.0043 2133.6003 1909.6542 
14:31:52.046943 2022 2099 2131.7796 2117.9943 2126.3175 2128.6584 2126.5776 2110.4514 2127.618 2134.3806 2134.1205 2133.8604 2137.5018 2143.7442 2132.5599 1916.4168 
14:31:52.054907 2015 2122 2135.6811 2116.6938 2129.1786 2128.3983 2127.0978 2142.1836 2123.4564 2135.421 2133.6003 2133.6003 2137.5018 2147.3856 2134.9008 1919.538 
14:31:52.061899 2013 2131 2135.9412 2118.2544 2128.9185 2127.3579 2127.0978 2137.2417 2127.0978 2133.8604 2134.6407 2133.8604 2139.8427 2146.6053 2134.9008 1915.1163 
14:31:52.069897 2012 2140 2134.3806 2117.7342 2127.3579 2125.2771 2125.7973 2115.3933 2128.1382 2133.8604 2135.6811 2134.3806 2141.1432 2146.0851 2136.2013 1915.6365 
14:31:52.077941 2000 2120 2135.421 2116.4337 2127.0978 2124.7569 2127.3579 2108.1105 2127.0978 2133.8604 2133.6003 2135.1609 2139.5826 2148.1659 2136.7215 1917.1971 
14:31:52.085904 2001 2131 2134.9008 2116.4337 2128.3983 2126.3175 2128.6584 2116.4337 2129.6988 2134.3806 2133.0801 2134.6407 2140.623 2149.7265 2136.9816 1919.2779 
14:31:52.093899 1997 2131 2133.0801 2117.4741 2128.6584 2125.7973 2128.6584 2131.7796 2129.4387 2135.6811 2134.6407 2134.1205 2140.623 2147.9058 2138.8023 1926.5607 
14:31:52.101899 1993 2111 2133.3402 2117.4741 2127.0978 2127.618 2129.1786 2128.6584 2129.9589 2134.9008 2135.1609 2134.9008 2138.8023 2148.426 2139.3225 1929.6819 
14:31:52.109953 2000 2110 2133.8604 2117.9943 2125.7973 2126.3175 2128.6584 2109.6711 2127.0978 2133.0801 2133.0801 2134.9008 2136.7215 2145.5649 2139.5826 1928.1213 
14:31:52.117908 2003 2092 2128.6584 2119.0347 2125.2771 2127.3579 2130.219 2071.9566 2128.3983 2133.8604 2133.0801 2134.6407 2135.421 2142.4437 2138.2821 1921.3587 
14:31:52.124898 2005 2082 2130.219 2116.1736 2122.6761 2123.9766 2128.1382 2064.9339 2122.9362 2134.6407 2134.9008 2134.9008 2135.421 2144.2644 2139.3225 1924.74 
14:31:52.132938 2009 2075 2128.1382 2117.9943 2124.4968 2125.5372 2128.1382 2088.603 2125.017 2133.6003 2135.1609 2134.3806 2134.3806 2139.3225 2136.4614 1918.7577 
14:31:52.140952 2009 2066 2127.3579 2118.2544 2125.5372 2126.0574 2124.7569 2080.0197 2122.416 2134.1205 2133.8604 2135.1609 2134.6407 2137.7619 2137.7619 1917.4572 
14:31:52.148908 2021 2055 2125.5372 2118.5145 2125.7973 2128.9185 2127.3579 2067.795 2123.9766 2134.3806 2134.1205 2135.1609 2135.421 2139.5826 2136.4614 1902.3714 
14:31:52.156900 2023 2047 2128.1382 2118.5145 2125.5372 2126.0574 2127.0978 2074.0374 2122.9362 2134.1205 2135.421 2133.8604 2136.4614 2144.2644 2136.9816 1893.528 
14:31:52.165019 2035 2048 2125.7973 2120.0751 2126.8377 2126.8377 2126.0574 2064.6738 2128.1382 2137.5018 2135.1609 2134.6407 2136.4614 2142.4437 2136.7215 1881.3033 
14:31:52.172937 2034 2037 2129.6988 2119.0347 2126.8377 2127.8781 2123.9766 2051.1486 2128.9185 2136.7215 2133.3402 2135.9412 2139.3225 2146.0851 2136.9816 1882.3437 
14:31:52.180907 2044 2038 2129.4387 2117.214 2125.7973 2129.4387 2127.0978 2049.588 2130.9993 2135.9412 2133.6003 2134.6407 2140.1028 2144.2644 2134.9008 1876.1013 
14:31:52.187897 2051 2037 2132.82 2120.0751 2126.3175 2128.6584 2129.6988 2075.0778 2130.7392 2135.421 2134.6407 2133.8604 2140.3629 2146.8654 2137.2417 1878.9624 
14:31:52.195926 2059 2032 2135.421 2121.6357 2129.6988 2129.1786 2130.9993 2102.1282 2130.7392 2137.5018 2135.9412 2134.6407 2140.3629 2151.2871 2141.1432 1882.3437 
14:31:52.203933 2064 2029 2135.421 2121.3756 2129.6988 2128.3983 2130.4791 2090.4237 2130.7392 2135.421 2134.3806 2135.1609 2140.623 2152.0674 2139.5826 1887.0255 
14:31:52.211903 2072 2021 2132.0397 2120.0751 2125.5372 2128.1382 2128.6584 2079.4995 2130.9993 2136.9816 2134.9008 2134.9008 2139.5826 2147.1255 2137.2417 1890.6669 
14:31:52.219896 2077 2018 2132.82 2122.9362 2126.3175 2130.219 2129.9589 2117.4741 2130.219 2136.4614 2134.3806 2135.421 2139.5826 2149.4664 2138.2821 1896.129 
14:31:52.227972 2080 2002 2135.9412 2122.9362 2129.9589 2130.219 2131.7796 2138.2821 2128.6584 2134.1205 2133.0801 2135.421 2137.7619 2149.2063 2138.5422 1900.8108 
14:31:52.243911 2087 1989 2133.3402 2122.1559 2126.3175 2127.618 2127.618 2105.2494 2125.017 2134.9008 2134.3806 2134.6407 2134.1205 2137.7619 2130.7392 1909.9143 
14:31:52.251895 2090 1970 2134.6407 2121.8958 2126.5776 2129.9589 2129.4387 2118.5145 2126.0574 2135.421 2134.6407 2135.9412 2135.9412 2140.623 2130.7392 1910.4345 
14:31:52.258929 2091 1962 2138.5422 2120.8554 2127.0978 2128.3983 2127.618 2135.6811 2124.4968 2131.7796 2133.3402 2134.9008 2136.7215 2143.224 2130.219 1915.6365 
14:31:52.266927 2089 1953 2136.4614 2121.6357 2128.1382 2127.8781 2126.5776 2135.421 2124.2367 2132.5599 2134.6407 2134.3806 2137.2417 2141.4033 2129.1786 1916.1567 
14:31:52.274903 2086 1944 2138.2821 2123.4564 2127.618 2127.0978 2127.3579 2146.6053 2124.4968 2131.7796 2133.6003 2135.1609 2138.022 2143.4841 2131.5195 1917.1971 
14:31:52.282896 2084 1946 2137.2417 2121.8958 2129.1786 2129.1786 2129.4387 2154.6684 2129.9589 2132.82 2133.3402 2135.1609 2138.022 2143.224 2131.5195 1905.4926 
14:31:52.291088 2085 1957 2138.022 2122.9362 2130.219 2126.8377 2128.1382 2162.4714 2127.0978 2133.0801 2132.82 2134.3806 2139.5826 2147.9058 2132.2998 1906.2729 
14:31:52.298923 2075 1949 2134.9008 2125.2771 2132.2998 2129.6988 2132.2998 2171.0547 2131.5195 2134.3806 2132.82 2133.6003 2139.8427 2149.4664 2130.9993 1897.1694 
14:31:52.306902 2067 1952 2138.5422 2124.2367 2133.3402 2130.4791 2133.0801 2192.9031 2133.3402 2134.3806 2133.6003 2134.1205 2138.5422 2150.7669 2131.5195 1892.4876 
14:31:52.314895 2060 1979 2139.8427 2126.5776 2137.5018 2132.82 2136.9816 2235.5595 2135.1609 2133.3402 2134.1205 2134.6407 2136.7215 2149.2063 2130.219 1884.1644 
14:31:52.322042 2057 1991 2137.2417 2126.5776 2133.8604 2130.219 2133.0801 2172.8754 2131.7796 2134.1205 2135.1609 2134.6407 2137.5018 2150.2467 2132.2998 1883.6442 
14:31:52.329928 2056 2000 2132.0397 2127.3579 2131.7796 2131.7796 2131.7796 2127.3579 2135.6811 2134.6407 2134.6407 2134.3806 2134.9008 2145.5649 2131.2594 1882.0836 
14:31:52.337907 2050 2018 2133.3402 2129.6988 2139.5826 2132.2998 2133.8604 2224.3752 2130.4791 2135.1609 2135.1609 2134.1205 2134.6407 2141.6634 2131.5195 1882.8639 
14:31:52.345901 2045 2034 2132.82 2130.7392 2138.8023 2132.0397 2133.3402 2222.8146 2129.4387 2131.7796 2134.9008 2133.3402 2134.3806 2141.1432 2129.9589 1881.3033 
14:31:52.353944 2039 2054 2131.7796 2123.9766 2127.3579 2129.6988 2125.2771 2086.2621 2128.6584 2132.0397 2135.9412 2134.6407 2134.1205 2142.1836 2128.6584 1883.3841 
14:31:52.361905 2034 2063 2134.1205 2123.4564 2127.0978 2131.5195 2126.3175 2108.1105 2128.9185 2133.3402 2134.1205 2135.6811 2135.1609 2144.2644 2128.6584 1886.5053 
14:31:52.369899 2028 2086 2133.3402 2122.9362 2133.8604 2132.2998 2130.7392 2194.9839 2126.0574 2135.6811 2132.5599 2134.3806 2138.5422 2143.4841 2130.7392 1880.7831 
14:31:52.377896 2024 2092 2131.7796 2119.815 2130.219 2128.1382 2126.8377 2137.2417 2127.8781 2134.9008 2132.5599 2133.3402 2138.2821 2142.7038 2130.9993 1886.2452 
14:31:52.384929 2019 2116 2131.5195 2119.5549 2127.618 2128.1382 2125.7973 2100.8277 2131.5195 2135.6811 2133.8604 2134.9008 2138.2821 2144.0043 2130.219 1889.8866 
14:31:52.392900 2020 2128 2134.1205 2120.5953 2129.1786 2128.9185 2129.9589 2140.3629 2129.6988 2135.1609 2134.1205 2135.9412 2140.623 2145.825 2132.82 1886.7654 
14:31:52.400899 2006 2116 2133.6003 2118.2544 2130.219 2130.9993 2130.9993 2134.1205 2130.4791 2134.6407 2134.9008 2134.6407 2139.8427 2145.5649 2134.6407 1885.2048 
14:31:52.408896 2001 2112 2135.6811 2119.2948 2129.1786 2128.6584 2128.6584 2121.8958 2129.1786 2133.8604 2135.1609 2133.6003 2136.7215 2147.9058 2135.9412 1898.9901 
14:31:52.417037 2005 2136 2134.3806 2121.6357 2127.618 2129.1786 2130.4791 2118.5145 2132.5599 2132.5599 2134.9008 2134.1205 2137.2417 2148.426 2135.6811 1902.6315 
14:31:52.424957 2000 2117 2136.4614 2121.1155 2126.5776 2127.3579 2130.219 2127.3579 2128.3983 2131.5195 2134.9008 2134.6407 2138.2821 2145.5649 2137.5018 1904.4522 
14:31:52.433019 1999 2106 2133.0801 2122.9362 2129.6988 2129.4387 2131.7796 2131.7796 2129.4387 2132.82 2135.6811 2134.1205 2135.6811 2143.4841 2136.2013 1899.5103 
14:31:52.440907 2004 2105 2128.9185 2122.6761 2126.8377 2127.0978 2129.4387 2090.1636 2127.3579 2134.3806 2134.3806 2134.3806 2135.1609 2145.0447 2136.9816 1900.2906 
14:31:52.448940 2004 2089 2126.8377 2121.6357 2125.017 2127.3579 2128.6584 2063.6334 2130.7392 2134.1205 2133.0801 2134.9008 2134.6407 2139.0624 2133.0801 1891.1871 
14:31:52.455900 2008 2083 2131.5195 2120.5953 2126.5776 2126.3175 2126.0574 2101.0878 2124.4968 2132.5599 2134.1205 2134.9008 2134.3806 2136.9816 2131.7796 1893.7881 
14:31:52.463898 2010 2069 2126.3175 2120.3352 2127.618 2130.219 2128.9185 2115.1332 2123.1963 2134.3806 2135.6811 2134.6407 2133.8604 2136.2013 2131.7796 1885.2048 
14:31:52.471902 2014 2057 2126.0574 2119.0347 2125.017 2129.9589 2128.1382 2080.5399 2124.7569 2134.1205 2134.9008 2134.9008 2135.6811 2139.8427 2133.8604 1883.6442 
14:31:52.479938 2020 2053 2126.3175 2120.3352 2125.2771 2127.8781 2125.7973 2056.3506 2126.5776 2133.8604 2133.6003 2133.8604 2134.1205 2136.9816 2132.2998 1876.6215 
14:31:52.487916 2031 2050 2126.8377 2122.6761 2127.0978 2126.8377 2123.9766 2061.5526 2125.017 2134.3806 2133.3402 2133.8604 2134.9008 2140.8831 2132.82 1870.119 
14:31:52.495905 2034 2054 2126.0574 2120.8554 2126.5776 2128.6584 2125.7973 2062.593 2126.8377 2135.9412 2135.6811 2135.9412 2138.5422 2142.1836 2134.3806 1859.715 
14:31:52.503930 2041 2041 2129.9589 2120.0751 2126.3175 2127.0978 2126.8377 2065.9743 2129.6988 2134.1205 2135.421 2136.4614 2139.8427 2144.0043 2134.6407 1862.0559 
14:31:52.511948 2047 2036 2129.4387 2119.815 2127.618 2126.0574 2127.3579 2075.3379 2129.9589 2136.7215 2133.8604 2134.6407 2137.5018 2146.0851 2134.3806 1861.5357 
14:31:52.518903 2051 2033 2128.1382 2123.7165 2129.6988 2131.7796 2132.0397 2100.5676 2134.6407 2136.7215 2134.3806 2134.1205 2136.9816 2147.9058 2133.3402 1855.0332 
14:31:52.526896 2056 2024 2129.6988 2124.2367 2129.4387 2131.2594 2131.7796 2105.7696 2135.421 2135.1609 2136.9816 2134.9008 2138.022 2144.7846 2134.3806 1859.1948 
14:31:52.534931 2061 2023 2129.6988 2124.7569 2129.6988 2129.1786 2130.4791 2093.0247 2133.0801 2135.1609 2135.421 2134.9008 2136.2013 2140.623 2132.82 1864.6569 
14:31:52.542937 2076 2022 2135.1609 2125.5372 2129.4387 2129.1786 2129.9589 2100.5676 2128.6584 2134.6407 2133.8604 2135.1609 2133.6003 2139.3225 2130.7392 1874.2806 
14:31:52.550891 2077 2015 2134.6407 2125.5372 2129.4387 2132.5599 2129.4387 2103.9489 2129.1786 2133.0801 2135.6811 2135.1609 2132.2998 2136.9816 2129.1786 1877.1417 
14:31:52.558892 2081 2002 2133.6003 2123.7165 2127.618 2128.6584 2126.3175 2094.0651 2125.017 2132.2998 2134.3806 2134.9008 2132.82 2138.5422 2129.1786 1882.0836 
14:31:52.566881 2082 1994 2131.7796 2122.6761 2128.9185 2127.618 2128.1382 2113.8327 2125.7973 2134.6407 2134.6407 2135.6811 2135.1609 2138.2821 2126.5776 1879.2225 
14:31:52.574920 2086 1979 2135.9412 2124.2367 2129.6988 2128.9185 2127.8781 2143.4841 2124.7569 2132.2998 2136.2013 2135.6811 2135.421 2139.0624 2127.0978 1885.4649 
14:31:52.581893 2088 1974 2135.1609 2123.1963 2130.219 2132.5599 2128.6584 2141.9235 2127.618 2132.5599 2134.9008 2134.9008 2136.2013 2140.3629 2127.0978 1883.6442 
14:31:52.589896 2087 1962 2136.4614 2121.8958 2127.8781 2128.1382 2128.3983 2123.4564 2124.7569 2132.5599 2131.5195 2135.421 2138.5422 2142.9639 2126.5776 1888.5861 
14:31:52.597934 2088 1958 2133.6003 2122.9362 2128.1382 2128.1382 2130.7392 2121.3756 2130.219 2134.1205 2133.0801 2135.1609 2138.2821 2141.1432 2124.7569 1881.5634 
14:31:52.605914 2079 1951 2136.2013 2123.7165 2128.9185 2127.8781 2130.7392 2154.9285 2132.0397 2133.6003 2134.1205 2134.1205 2139.0624 2147.6457 2127.8781 1880.2629 
14:31:52.613888 2077 1953 2136.9816 2124.4968 2129.6988 2129.4387 2133.3402 2178.0774 2133.0801 2132.82 2132.5599 2133.0801 2139.0624 2147.3856 2126.5776 1878.9624 
14:31:52.621889 2076 1958 2137.5018 2125.017 2131.5195 2129.1786 2132.2998 2185.1001 2129.6988 2133.8604 2134.1205 2133.8604 2139.5826 2144.2644 2128.1382 1880.7831 
14:31:52.629925 2072 1957 2135.6811 2128.1382 2133.6003 2130.7392 2132.5599 2175.7365 2134.6407 2133.6003 2133.6003 2134.9008 2138.2821 2145.5649 2129.4387 1872.72 
14:31:52.637912 2066 1960 2137.2417 2127.3579 2133.8604 2129.1786 2130.9993 2166.1128 2132.2998 2134.6407 2133.6003 2134.9008 2138.2821 2148.9462 2130.4791 1866.9978 
14:31:52.645889 2061 1993 2138.022 2130.4791 2135.9412 2131.5195 2133.0801 2197.3248 2130.7392 2133.3402 2134.6407 2133.6003 2135.421 2142.7038 2127.618 1861.2756 
14:31:52.652887 2060 2003 2134.3806 2129.1786 2131.7796 2133.0801 2130.4791 2155.4487 2130.219 2134.9008 2135.1609 2134.1205 2135.1609 2140.8831 2128.9185 1858.4145 
14:31:52.660965 2049 2019 2133.0801 2127.0978 2129.4387 2132.0397 2131.2594 2143.7442 2133.0801 2134.3806 2133.0801 2134.9008 2134.6407 2143.4841 2128.9185 1863.3564 
14:31:52.668903 2047 2033 2133.0801 2127.618 2138.5422 2132.0397 2136.9816 2244.663 2132.0397 2135.1609 2134.1205 2134.3806 2133.0801 2138.022 2125.2771 1859.4549 
14:31:52.676889 2041 2049 2134.6407 2128.3983 2137.2417 2130.219 2133.0801 2226.7161 2129.1786 2133.0801 2133.8604 2134.6407 2134.1205 2138.022 2125.017 1859.715 
14:31:52.684888 2039 2062 2131.5195 2124.4968 2127.3579 2129.9589 2126.3175 2099.2671 2129.1786 2133.6003 2133.6003 2135.6811 2135.6811 2141.6634 2126.5776 1859.1948 
14:31:52.693066 2033 2080 2132.0397 2123.7165 2127.3579 2130.219 2127.0978 2112.012 2128.6584 2133.3402 2133.3402 2136.2013 2134.3806 2141.1432 2127.0978 1862.0559 
14:31:52.700891 2027 2090 2131.2594 2124.4968 2132.82 2130.7392 2130.4791 2160.6507 2132.0397 2133.6003 2133.0801 2135.1609 2136.7215 2140.1028 2127.0978 1857.8943 
14:31:52.708889 2018 2107 2135.421 2122.6761 2129.4387 2125.7973 2127.3579 2127.8781 2128.3983 2132.2998 2133.0801 2133.3402 2141.1432 2144.7846 2129.6988 1862.8362 
14:31:52.715887 2017 2117 2135.9412 2121.6357 2128.9185 2127.0978 2130.4791 2136.7215 2130.4791 2133.3402 2133.0801 2134.1205 2140.623 2144.5245 2129.4387 1863.6165 
14:31:52.724097 2014 2119 2136.4614 2121.8958 2129.6988 2126.8377 2130.4791 2146.6053 2129.1786 2133.6003 2132.82 2135.1609 2139.0624 2146.3452 2131.2594 1870.3791 
14:31:52.731899 2009 2112 2133.3402 2122.9362 2130.4791 2129.1786 2130.7392 2114.613 2134.6407 2132.82 2133.0801 2133.8604 2139.5826 2146.0851 2130.7392 1870.8993 
14:31:52.739890 2014 2128 2134.6407 2121.8958 2128.6584 2126.8377 2129.6988 2106.2898 2131.2594 2133.6003 2133.8604 2133.6003 2139.5826 2144.2644 2131.2594 1876.3614 
14:31:52.747892 2005 2108 2132.82 2122.6761 2127.618 2128.6584 2130.4791 2118.7746 2129.9589 2135.421 2135.1609 2134.6407 2135.1609 2142.4437 2130.9993 1875.8412 
14:31:52.755943 2002 2104 2132.2998 2123.1963 2128.9185 2128.9185 2129.6988 2136.4614 2126.8377 2133.0801 2135.1609 2135.1609 2134.1205 2144.2644 2133.0801 1879.7427 
14:31:52.763896 2003 2096 2127.3579 2122.1559 2127.8781 2128.6584 2130.7392 2107.8504 2129.9589 2132.5599 2134.3806 2134.9008 2133.6003 2138.022 2129.9589 1873.7604 
14:31:52.771895 2002 2082 2131.5195 2120.8554 2123.9766 2126.5776 2128.1382 2080.2798 2127.0978 2134.6407 2133.0801 2134.1205 2134.3806 2136.2013 2128.1382 1876.8816 
14:31:52.779893 2013 2083 2133.3402 2124.2367 2126.8377 2127.8781 2128.1382 2111.2317 2123.4564 2134.1205 2133.8604 2134.1205 2132.82 2135.421 2127.8781 1873.5003 
14:31:52.786932 2015 2068 2128.6584 2122.416 2128.6584 2128.9185 2126.8377 2097.7065 2125.017 2131.5195 2135.1609 2135.1609 2133.0801 2136.7215 2129.6988 1867.518 
14:31:52.794902 2019 2061 2125.2771 2118.7746 2125.5372 2127.3579 2123.9766 2053.7496 2126.3175 2134.1205 2134.9008 2135.1609 2133.8604 2136.2013 2129.6988 1861.2756 
14:31:52.802895 2020 2059 2128.6584 2121.6357 2124.7569 2127.8781 2124.4968 2070.6561 2125.5372 2134.3806 2134.1205 2134.6407 2135.9412 2139.3225 2127.618 1859.1948 
14:31:52.810893 2031 2045 2128.9185 2122.1559 2125.7973 2128.1382 2126.8377 2091.4641 2125.017 2134.1205 2135.1609 2135.9412 2135.9412 2137.5018 2129.4387 1853.7327 
14:31:52.818933 2033 2041 2127.0978 2122.9362 2130.219 2130.219 2130.219 2097.1863 2131.2594 2135.421 2134.6407 2136.2013 2135.421 2137.7619 2130.9993 1844.6292 
14:31:52.826901 2040 2043 2129.6988 2122.416 2130.4791 2128.6584 2128.3983 2082.6207 2131.7796 2137.2417 2133.3402 2134.6407 2137.5018 2143.224 2131.5195 1845.4095 
14:31:52.834895 2045 2036 2128.9185 2122.9362 2127.0978 2128.9185 2128.9185 2055.3102 2133.8604 2135.421 2133.6003 2134.6407 2138.5422 2144.2644 2129.4387 1842.8085 
14:31:52.842890 2049 2034 2132.82 2122.1559 2126.0574 2127.8781 2128.9185 2072.7369 2129.6988 2134.6407 2134.9008 2135.6811 2137.2417 2142.9639 2130.9993 1846.1898 
14:31:52.849937 2062 2031 2132.5599 2125.5372 2131.7796 2131.5195 2131.2594 2114.8731 2130.4791 2136.2013 2135.1609 2134.9008 2136.4614 2143.224 2130.4791 1843.3287 
14:31:52.857903 2067 2028 2134.3806 2126.3175 2132.0397 2128.6584 2129.6988 2107.8504 2130.9993 2135.421 2134.9008 2134.3806 2136.2013 2146.0851 2129.6988 1848.5307 
14:31:52.865893 2071 2015 2131.5195 2125.7973 2128.3983 2127.3579 2129.1786 2086.002 2133.3402 2135.1609 2136.2013 2135.421 2133.8604 2140.8831 2127.3579 1848.7908 
14:31:52.873889 2074 2009 2133.0801 2126.8377 2127.8781 2126.8377 2129.1786 2100.5676 2127.3579 2132.82 2134.3806 2135.421 2132.82 2139.0624 2128.3983 1857.114 
14:31:52.881931 2078 2000 2131.7796 2125.2771 2130.4791 2130.4791 2132.2998 2122.416 2129.1786 2133.3402 2132.82 2135.1609 2132.5599 2136.9816 2126.0574 1853.2125 
14:31:52.889914 2082 1995 2134.6407 2124.7569 2129.1786 2129.1786 2130.7392 2135.421 2128.1382 2132.5599 2133.3402 2136.9816 2133.8604 2138.022 2123.1963 1857.6342 
14:31:52.897894 2085 1980 2133.6003 2125.2771 2128.6584 2129.4387 2129.6988 2124.2367 2127.8781 2133.6003 2134.6407 2136.7215 2134.3806 2136.7215 2122.6761 1858.6746 
14:31:52.905892 2085 1974 2136.9816 2125.017 2129.4387 2127.618 2128.3983 2120.0751 2125.7973 2132.82 2133.6003 2134.1205 2134.9008 2138.022 2125.017 1864.917 
14:31:52.912947 2084 1964 2137.2417 2125.5372 2130.219 2128.3983 2129.1786 2133.6003 2128.9185 2132.2998 2131.7796 2134.1205 2134.1205 2136.9816 2122.9362 1866.2175 
14:31:52.920902 2083 1962 2136.7215 2126.0574 2128.9185 2128.9185 2128.1382 2148.1659 2127.3579 2132.82 2132.2998 2135.421 2138.022 2140.8831 2123.9766 1865.6973 
14:31:52.928894 2078 1958 2136.4614 2127.618 2129.9589 2128.9185 2131.7796 2160.9108 2130.4791 2131.5195 2132.0397 2134.1205 2140.1028 2142.4437 2124.4968 1858.4145 
14:31:52.936944 2075 1962 2136.4614 2126.0574 2130.9993 2127.618 2131.5195 2157.7896 2132.0397 2133.6003 2132.82 2132.82 2138.8023 2142.1836 2125.5372 1858.1544 
14:31:52.945003 2076 1970 2136.7215 2127.618 2132.2998 2130.7392 2132.2998 2169.234 2132.82 2133.0801 2133.3402 2133.6003 2137.2417 2141.4033 2126.5776 1859.1948 
14:31:52.952902 2069 1969 2135.9412 2127.0978 2132.82 2132.5599 2134.3806 2163.5118 2133.6003 2134.1205 2133.8604 2134.3806 2138.8023 2142.9639 2127.3579 1849.8312 
14:31:52.960894 2063 1975 2136.4614 2129.1786 2133.3402 2130.4791 2134.6407 2169.234 2133.0801 2133.0801 2131.7796 2134.3806 2137.2417 2144.5245 2125.2771 1847.4903 
14:31:52.968969 2057 2000 2133.8604 2130.9993 2136.4614 2131.5195 2134.3806 2206.4283 2131.5195 2134.3806 2132.2998 2134.6407 2134.1205 2140.623 2124.2367 1844.3691 
14:31:52.976929 2053 2006 2134.3806 2129.6988 2132.0397 2131.2594 2132.5599 2167.1532 2131.2594 2132.0397 2134.1205 2134.6407 2134.1205 2140.1028 2124.4968 1843.0686 
14:31:52.983900 2046 2026 2131.2594 2126.8377 2131.7796 2132.5599 2132.5599 2127.3579 2132.5599 2132.82 2134.6407 2134.9008 2134.1205 2136.4614 2121.8958 1837.0863 
14:31:52.991903 2044 2035 2133.6003 2129.9589 2137.7619 2131.7796 2134.1205 2218.653 2125.5372 2132.5599 2132.2998 2134.3806 2133.8604 2135.6811 2121.6357 1842.2883 
14:31:52.999935 2039 2059 2133.3402 2129.9589 2136.4614 2131.7796 2134.3806 2223.855 2126.5776 2133.0801 2131.5195 2134.1205 2134.1205 2135.421 2121.3756 1836.8262 
14:31:53.007926 2038 2072 2135.1609 2124.4968 2128.6584 2128.6584 2127.8781 2112.012 2126.5776 2132.2998 2132.5599 2135.9412 2134.1205 2139.3225 2123.9766 1839.9474 
14:31:53.015900 2033 2087 2133.6003 2125.017 2131.5195 2131.5195 2128.9185 2116.6938 2129.4387 2133.8604 2133.6003 2136.2013 2134.1205 2139.8427 2125.017 1841.508 
14:31:53.023892 2025 2098 2134.9008 2127.3579 2133.0801 2129.9589 2130.9993 2168.1936 2126.8377 2135.421 2133.8604 2134.9008 2136.4614 2139.3225 2125.7973 1844.8893 
14:31:53.031970 2022 2106 2132.5599 2124.7569 2129.1786 2129.9589 2131.5195 2130.219 2133.0801 2134.9008 2133.8604 2134.1205 2136.7215 2138.2821 2123.4564 1846.4499 
14:31:53.039920 2011 2093 2132.2998 2122.9362 2129.1786 2128.3983 2128.9185 2115.9135 2132.0397 2133.3402 2133.8604 2134.6407 2136.7215 2141.1432 2124.7569 1855.2933 
14:31:53.046899 2011 2101 2132.0397 2125.2771 2132.5599 2129.4387 2130.7392 2146.8654 2133.6003 2133.3402 2132.82 2134.1205 2136.7215 2142.7038 2124.4968 1852.1721 
14:31:53.054892 2014 2121 2136.4614 2123.4564 2128.9185 2127.618 2129.6988 2129.1786 2131.5195 2134.3806 2133.6003 2134.6407 2137.7619 2144.0043 2127.3579 1855.0332 
14:31:53.062967 2010 2113 2135.6811 2123.9766 2128.6584 2128.3983 2130.219 2112.012 2131.5195 2134.1205 2133.8604 2134.1205 2135.9412 2141.4033 2129.1786 1859.715 
14:31:53.070918 2008 2105 2132.0397 2124.2367 2130.4791 2127.8781 2129.9589 2115.9135 2129.4387 2133.8604 2133.3402 2134.9008 2135.6811 2142.4437 2129.9589 1863.3564 
14:31:53.078896 2009 2105 2128.6584 2123.7165 2126.8377 2129.4387 2130.9993 2107.0701 2129.6988 2132.5599 2133.8604 2136.9816 2134.9008 2139.0624 2128.1382 1857.3741 
14:31:53.086890 2005 2082 2131.7796 2124.2367 2124.7569 2130.7392 2129.6988 2101.3479 2127.0978 2131.7796 2134.6407 2136.2013 2133.8604 2136.7215 2126.8377 1860.4953 
14:31:53.095086 2011 2078 2131.7796 2126.0574 2128.6584 2128.1382 2129.1786 2126.8377 2124.2367 2133.3402 2133.6003 2133.8604 2132.82 2134.3806 2125.7973 1860.2352 
14:31:53.102902 2019 2066 2127.0978 2125.017 2129.6988 2129.4387 2129.9589 2117.7342 2127.3579 2132.82 2133.3402 2134.1205 2133.0801 2134.6407 2125.2771 1850.0913 
14:31:53.110897 2021 2063 2126.0574 2121.8958 2123.9766 2130.219 2126.8377 2057.6511 2126.8377 2132.82 2135.1609 2135.1609 2133.3402 2134.6407 2125.5372 1842.5484 
14:31:53.117893 2024 2063 2127.618 2123.4564 2125.2771 2130.219 2125.7973 2055.3102 2128.1382 2134.3806 2134.3806 2134.1205 2133.6003 2135.9412 2123.7165 1838.907 
14:31:53.126076 2027 2053 2127.8781 2122.1559 2127.618 2126.3175 2125.5372 2081.5803 2125.7973 2135.6811 2133.0801 2133.8604 2134.1205 2137.5018 2126.5776 1841.7681 
14:31:53.133900 2029 2043 2125.7973 2123.1963 2129.1786 2128.6584 2128.3983 2103.9489 2129.4387 2133.0801 2133.0801 2134.3806 2134.1205 2137.2417 2127.8781 1833.705 
14:31:53.141896 2041 2041 2130.9993 2123.9766 2129.4387 2127.618 2126.8377 2107.5903 2128.1382 2131.5195 2133.3402 2135.421 2136.4614 2141.6634 2128.6584 1832.4045 
14:31:53.149888 2046 2040 2130.4791 2124.7569 2129.1786 2128.3983 2128.1382 2071.4364 2131.7796 2134.3806 2133.8604 2135.9412 2138.022 2141.6634 2125.7973 1827.4626 
14:31:53.157935 2052 2033 2132.0397 2124.2367 2127.8781 2127.618 2127.0978 2061.0324 2129.4387 2134.9008 2132.82 2134.9008 2138.2821 2141.6634 2127.0978 1834.4853 
14:31:53.165901 2057 2033 2130.9993 2124.4968 2129.1786 2130.219 2129.1786 2096.9262 2132.82 2134.1205 2134.1205 2134.6407 2136.7215 2140.1028 2127.3579 1830.0636 
14:31:53.172894 2064 2023 2133.8604 2125.017 2127.8781 2130.4791 2130.219 2109.411 2132.2998 2132.0397 2134.6407 2136.7215 2137.2417 2143.224 2127.618 1833.1848 
14:31:53.180905 2066 2019 2130.219 2125.017 2128.6584 2132.2998 2133.0801 2098.4868 2133.0801 2135.1609 2133.6003 2136.4614 2134.3806 2139.8427 2125.2771 1833.705 
14:31:53.188932 2072 2008 2130.9993 2126.8377 2130.219 2129.4387 2131.2594 2108.1105 2130.7392 2133.6003 2131.7796 2134.1205 2131.7796 2138.2821 2125.017 1840.2075 
14:31:53.196899 2077 2003 2131.5195 2127.3579 2130.219 2129.1786 2128.9185 2115.3933 2131.5195 2132.5599 2133.0801 2134.9008 2131.7796 2135.421 2123.1963 1838.3868 
14:31:53.204899 2082 1997 2133.3402 2127.618 2129.1786 2129.9589 2127.618 2121.3756 2126.5776 2133.0801 2132.82 2136.9816 2133.3402 2135.6811 2122.1559 1843.0686 
14:31:53.212906 2084 1989 2133.0801 2125.7973 2128.9185 2130.9993 2128.6584 2120.8554 2123.4564 2134.1205 2132.2998 2135.421 2133.3402 2135.421 2121.6357 1844.109 
14:31:53.220932 2080 1983 2134.9008 2123.9766 2128.6584 2129.1786 2128.6584 2125.2771 2123.9766 2131.7796 2134.1205 2133.6003 2134.9008 2137.5018 2122.416 1847.2302 
14:31:53.227901 2079 1969 2134.9008 2126.8377 2130.4791 2129.1786 2129.9589 2144.5245 2127.8781 2130.219 2133.3402 2133.6003 2134.3806 2137.5018 2121.1155 1849.5711 
14:31:53.235897 2078 1967 2133.6003 2127.618 2130.9993 2130.7392 2130.219 2153.3679 2128.3983 2132.82 2132.5599 2134.3806 2134.9008 2138.8023 2121.3756 1844.8893 
14:31:53.243895 2078 1963 2136.2013 2127.8781 2129.6988 2129.6988 2129.6988 2150.7669 2128.9185 2132.0397 2132.5599 2134.6407 2135.9412 2139.5826 2121.1155 1841.508 
14:31:53.259915 2072 1977 2135.421 2127.3579 2132.5599 2128.9185 2133.0801 2154.9285 2133.6003 2133.6003 2132.0397 2134.3806 2136.7215 2142.1836 2122.416 1839.9474 
14:31:53.267901 2071 1980 2135.6811 2129.6988 2133.3402 2132.5599 2134.9008 2181.9789 2134.1205 2133.8604 2132.82 2135.1609 2136.9816 2143.224 2121.8958 1831.104 
14:31:53.275909 2060 1980 2138.022 2131.2594 2132.5599 2130.219 2130.4791 2177.5572 2131.2594 2131.5195 2132.82 2135.1609 2136.4614 2142.4437 2122.416 1837.0863 
14:31:53.283950 2057 1989 2133.8604 2130.9993 2134.9008 2130.4791 2133.0801 2190.3021 2132.2998 2133.6003 2133.0801 2135.421 2135.6811 2140.3629 2122.9362 1836.306 
14:31:53.291902 2049 2009 2134.1205 2131.2594 2134.3806 2130.7392 2135.1609 2197.0647 2130.7392 2133.8604 2132.5599 2136.2013 2135.9412 2143.224 2123.7165 1831.6242 
14:31:53.299898 2047 2022 2131.5195 2130.4791 2130.9993 2132.5599 2132.5599 2123.4564 2132.2998 2132.82 2132.82 2134.6407 2133.8604 2138.5422 2120.5953 1821.7404 
14:31:53.306898 2044 2043 2133.3402 2129.6988 2132.5599 2130.4791 2129.4387 2132.0397 2127.618 2132.82 2134.3806 2133.6003 2133.6003 2136.2013 2119.815 1827.4626 
14:31:53.314938 2040 2052 2131.7796 2132.2998 2139.8427 2133.3402 2135.421 2230.8777 2130.7392 2133.6003 2134.6407 2135.1609 2133.8604 2134.1205 2117.4741 1822.0005 
14:31:53.322901 2037 2065 2131.5195 2130.219 2137.2417 2130.9993 2133.6003 2195.244 2129.4387 2133.8604 2134.3806 2135.1609 2134.3806 2133.8604 2118.5145 1822.0005 
14:31:53.330882 2031 2083 2129.9589 2127.0978 2130.9993 2131.2594 2131.5195 2107.8504 2130.219 2132.2998 2134.3806 2133.6003 2132.5599 2133.3402 2118.2544 1827.2025 
14:31:53.338899 2025 2092 2133.0801 2126.3175 2130.9993 2129.4387 2130.219 2129.6988 2125.2771 2132.82 2134.1205 2134.1205 2134.3806 2135.9412 2120.5953 1832.9247 
14:31:53.346946 2017 2094 2133.6003 2127.0978 2133.0801 2129.9589 2130.7392 2157.5295 2129.1786 2134.1205 2132.5599 2135.421 2136.2013 2137.2417 2122.6761 1830.0636 
14:31:53.354898 2012 2084 2133.6003 2125.017 2130.7392 2127.618 2127.8781 2129.4387 2129.4387 2134.1205 2133.0801 2135.9412 2137.2417 2139.0624 2125.017 1834.4853 
14:31:53.362896 2018 2114 2133.0801 2124.7569 2129.1786 2127.3579 2128.9185 2119.815 2129.4387 2131.7796 2133.0801 2134.9008 2136.9816 2140.623 2122.6761 1835.5257 
14:31:53.369928 2013 2111 2134.3806 2124.4968 2129.6988 2129.4387 2129.6988 2128.9185 2129.4387 2133.0801 2133.8604 2134.3806 2138.022 2141.9235 2123.9766 1836.8262 
14:31:53.377932 2009 2100 2133.3402 2125.017 2129.6988 2129.6988 2129.6988 2130.7392 2130.4791 2134.3806 2134.1205 2134.6407 2136.4614 2139.5826 2126.3175 1840.4676 
14:31:53.385884 2011 2101 2129.6988 2125.017 2128.9185 2128.3983 2131.2594 2110.9716 2130.4791 2133.3402 2133.6003 2134.3806 2135.9412 2139.8427 2125.017 1843.0686 
14:31:53.393885 2006 2085 2130.219 2124.2367 2126.8377 2128.1382 2131.7796 2086.2621 2127.618 2133.0801 2133.6003 2134.3806 2135.1609 2137.7619 2124.4968 1844.109 
14:31:53.401981 2011 2084 2131.7796 2125.2771 2128.9185 2130.4791 2130.219 2114.3529 2129.1786 2133.6003 2134.3806 2134.1205 2133.0801 2133.6003 2123.9766 1846.4499 
14:31:53.409911 2030 2074 2130.219 2126.3175 2129.4387 2126.5776 2128.6584 2129.9589 2126.8377 2133.3402 2133.6003 2134.1205 2132.0397 2132.82 2123.7165 1848.7908 
14:31:53.417885 2020 2071 2125.2771 2126.0574 2127.8781 2127.3579 2131.5195 2089.6434 2128.3983 2132.5599 2133.0801 2134.9008 2133.0801 2133.8604 2121.3756 1836.8262 
14:31:53.424885 2020 2061 2128.1382 2124.2367 2125.017 2126.5776 2127.3579 2065.7142 2122.416 2132.0397 2134.6407 2134.6407 2133.8604 2133.3402 2123.9766 1831.6242 
14:31:53.433927 2025 2056 2128.1382 2125.7973 2127.3579 2128.3983 2126.3175 2089.1232 2122.9362 2132.0397 2134.6407 2134.1205 2134.1205 2130.9993 2123.1963 1825.3818 
14:31:53.440896 2026 2049 2130.4791 2124.4968 2128.1382 2127.8781 2127.3579 2099.2671 2123.7165 2132.82 2132.82 2136.2013 2135.6811 2135.6811 2123.9766 1829.8035 
14:31:53.448883 2036 2045 2128.9185 2125.017 2129.4387 2129.9589 2129.1786 2091.4641 2129.6988 2134.9008 2133.0801 2136.2013 2135.1609 2135.9412 2123.4564 1820.4399 
14:31:53.456884 2057 2043 2130.219 2126.0574 2129.1786 2126.8377 2125.7973 2083.6611 2128.1382 2134.9008 2133.3402 2134.3806 2135.9412 2137.5018 2124.7569 1818.6192 
14:31:53.464958 2050 2040 2128.3983 2125.7973 2128.9185 2128.9185 2128.6584 2076.6384 2132.2998 2134.6407 2133.0801 2134.6407 2136.2013 2136.7215 2122.6761 1814.9778 
14:31:53.472898 2051 2035 2132.0397 2124.4968 2128.3983 2130.219 2130.7392 2084.1813 2132.82 2132.5599 2132.82 2135.1609 2136.4614 2140.623 2123.4564 1820.4399 
14:31:53.480883 2055 2027 2130.9993 2126.0574 2128.9185 2132.0397 2130.9993 2099.007 2133.3402 2133.8604 2133.3402 2133.6003 2135.9412 2139.8427 2123.9766 1817.0586 
14:31:53.488901 2061 2024 2132.2998 2127.3579 2129.1786 2130.219 2130.219 2117.214 2131.5195 2132.2998 2132.2998 2133.8604 2136.9816 2141.1432 2124.2367 1819.3995 
14:31:53.497156 2068 2016 2132.2998 2127.3579 2130.219 2129.4387 2130.9993 2121.8958 2131.5195 2131.7796 2133.0801 2135.6811 2134.9008 2140.1028 2123.7165 1822.5207 
14:31:53.503905 2072 2013 2133.3402 2129.1786 2130.219 2127.618 2130.4791 2108.3706 2130.219 2132.5599 2135.1609 2136.2013 2133.3402 2140.623 2124.7569 1829.2833 
14:31:53.511885 2076 2006 2133.6003 2128.3983 2129.1786 2127.0978 2130.7392 2096.1459 2130.219 2134.1205 2136.4614 2134.3806 2133.3402 2136.7215 2122.6761 1831.6242 
14:31:53.519881 2076 1997 2134.6407 2127.3579 2128.3983 2129.4387 2129.9589 2113.8327 2128.6584 2132.82 2135.6811 2133.6003 2133.3402 2135.1609 2119.2948 1832.9247 
14:31:53.528123 2078 1991 2134.6407 2128.3983 2129.1786 2131.2594 2129.6988 2140.8831 2127.0978 2131.7796 2133.3402 2135.6811 2132.0397 2135.421 2118.2544 1831.8843 
14:31:53.535897 2076 1979 2132.5599 2128.3983 2129.4387 2130.4791 2130.219 2147.1255 2128.9185 2132.82 2133.0801 2135.1609 2132.82 2134.3806 2118.7746 1827.7227 
14:31:53.543884 2076 1973 2133.3402 2128.9185 2128.6584 2128.6584 2130.9993 2137.5018 2129.1786 2131.5195 2133.3402 2132.82 2134.6407 2134.3806 2118.7746 1830.3237 
14:31:53.551881 2079 1974 2132.5599 2128.9185 2130.7392 2130.219 2131.7796 2135.6811 2128.9185 2132.82 2133.0801 2134.1205 2134.6407 2135.6811 2118.2544 1827.7227 
14:31:53.559928 2078 1970 2134.9008 2127.8781 2131.2594 2128.6584 2130.4791 2138.5422 2129.1786 2131.5195 2131.2594 2135.9412 2134.1205 2136.7215 2118.7746 1829.5434 
14:31:53.567885 2071 1975 2133.6003 2125.7973 2130.9993 2129.1786 2129.6988 2128.9185 2132.0397 2133.0801 2132.2998 2134.3806 2135.421 2135.6811 2120.0751 1826.4222 
14:31:53.574884 2071 1981 2137.2417 2128.1382 2132.82 2129.6988 2129.9589 2167.6734 2129.6988 2133.3402 2133.3402 2133.0801 2136.7215 2140.623 2121.8958 1829.2833 
14:31:53.582883 2067 1990 2135.9412 2129.9589 2135.6811 2132.2998 2135.1609 2199.1455 2132.82 2133.3402 2134.1205 2134.6407 2136.7215 2141.9235 2119.2948 1822.0005 
14:31:53.590928 2064 1990 2135.9412 2127.8781 2132.5599 2129.1786 2134.3806 2174.1759 2133.0801 2130.7392 2132.82 2135.6811 2136.2013 2141.1432 2120.0751 1824.8616 
14:31:53.598889 2055 2001 2133.0801 2129.4387 2134.1205 2129.9589 2134.6407 2167.9335 2136.9816 2132.82 2133.0801 2134.9008 2134.1205 2138.022 2121.3756 1821.4803 
14:31:53.606884 2054 2018 2134.3806 2132.2998 2135.421 2130.4791 2134.1205 2181.1986 2133.3402 2133.3402 2134.9008 2135.1609 2134.3806 2140.3629 2121.8958 1819.1394 
14:31:53.614893 2050 2029 2132.0397 2130.4791 2129.9589 2133.0801 2133.3402 2124.2367 2134.1205 2131.5195 2134.3806 2135.421 2134.1205 2138.022 2119.0347 1811.5965 
14:31:53.622925 2040 2041 2133.0801 2128.3983 2129.1786 2132.2998 2130.7392 2120.3352 2130.219 2133.0801 2132.82 2134.9008 2132.0397 2134.3806 2120.3352 1815.7581 
14:31:53.630908 2038 2056 2133.0801 2133.0801 2139.0624 2134.1205 2136.9816 2238.6807 2132.82 2133.6003 2131.5195 2133.6003 2129.9589 2131.5195 2118.2544 1815.7581 
14:31:53.637896 2030 2069 2132.5599 2132.0397 2138.5422 2131.5195 2135.1609 2233.9989 2128.3983 2131.5195 2131.7796 2133.3402 2133.3402 2134.3806 2117.4741 1814.1975 
14:31:53.645893 2030 2082 2132.0397 2128.1382 2130.7392 2130.7392 2128.1382 2118.5145 2125.017 2130.4791 2131.2594 2133.8604 2134.1205 2136.2013 2117.9943 1813.4172 
14:31:53.653942 2023 2090 2133.0801 2126.0574 2130.4791 2130.9993 2125.7973 2097.9666 2122.9362 2132.5599 2132.0397 2134.1205 2134.1205 2135.6811 2118.7746 1814.9778 
14:31:53.661902 2016 2079 2132.0397 2127.0978 2132.5599 2130.9993 2130.7392 2141.1432 2128.9185 2131.5195 2133.8604 2134.1205 2133.8604 2134.6407 2118.7746 1817.8389 
14:31:53.669892 2020 2104 2131.7796 2126.5776 2130.9993 2129.4387 2130.4791 2135.1609 2130.7392 2131.2594 2133.6003 2134.3806 2135.6811 2137.7619 2120.0751 1821.4803 
14:31:53.677895 2015 2101 2134.3806 2126.8377 2129.6988 2128.6584 2128.3983 2127.618 2128.3983 2130.9993 2131.2594 2134.3806 2135.9412 2139.0624 2120.3352 1823.5611 
14:31:53.685934 2016 2105 2132.82 2126.0574 2131.7796 2131.2594 2131.2594 2151.8073 2130.7392 2132.2998 2132.0397 2133.8604 2135.1609 2137.2417 2120.8554 1825.1217 
14:31:53.693903 2013 2096 2130.219 2125.017 2128.9185 2129.4387 2131.5195 2115.9135 2131.2594 2133.0801 2133.8604 2134.3806 2135.1609 2137.2417 2122.6761 1829.5434 
14:31:53.701893 2013 2092 2129.9589 2125.2771 2125.7973 2129.6988 2129.9589 2063.6334 2132.5599 2133.0801 2134.1205 2135.6811 2136.4614 2140.1028 2121.6357 1827.2025 
14:31:53.708891 2010 2085 2134.6407 2125.5372 2125.7973 2127.3579 2127.618 2087.0424 2128.6584 2133.3402 2133.6003 2135.421 2135.6811 2139.3225 2123.1963 1832.4045 
14:31:53.716942 2011 2078 2132.0397 2128.1382 2130.7392 2129.9589 2130.4791 2148.426 2130.4791 2134.1205 2134.1205 2134.9008 2133.0801 2134.1205 2123.7165 1837.8666 
14:31:53.724901 2019 2072 2129.9589 2128.3983 2128.6584 2129.6988 2128.6584 2132.0397 2126.8377 2133.6003 2134.1205 2134.9008 2132.82 2133.6003 2123.7165 1841.508 
14:31:53.732897 2021 2069 2126.8377 2127.3579 2127.618 2130.9993 2128.1382 2077.1586 2127.0978 2133.6003 2134.6407 2134.9008 2132.5599 2131.5195 2120.0751 1825.1217 
14:31:53.740893 2023 2056 2129.4387 2125.017 2129.4387 2127.0978 2126.3175 2082.8808 2121.8958 2133.0801 2134.6407 2135.6811 2132.82 2131.7796 2121.6357 1822.5207 
14:31:53.748937 2028 2057 2125.5372 2125.7973 2128.6584 2128.6584 2128.6584 2098.2267 2124.4968 2132.82 2134.1205 2135.1609 2132.2998 2129.4387 2120.3352 1817.0586 
14:31:53.756892 2032 2045 2127.8781 2125.2771 2126.0574 2130.219 2126.5776 2080.8 2125.017 2132.5599 2133.6003 2134.6407 2133.6003 2133.0801 2120.0751 1816.7985 
14:31:53.764887 2036 2045 2127.618 2124.2367 2128.3983 2130.7392 2126.5776 2077.1586 2129.4387 2134.9008 2133.3402 2134.9008 2133.8604 2134.3806 2119.815 1807.1748 
14:31:53.771935 2046 2039 2129.9589 2124.7569 2129.1786 2127.8781 2128.1382 2097.4464 2128.9185 2135.1609 2132.5599 2135.421 2135.6811 2138.5422 2121.8958 1807.4349 
14:31:53.779934 2051 2036 2129.9589 2124.7569 2127.8781 2129.1786 2130.9993 2100.8277 2129.9589 2135.421 2133.0801 2134.9008 2136.7215 2137.5018 2121.3756 1804.8339 
14:31:53.787899 2054 2031 2132.5599 2124.7569 2128.1382 2128.9185 2129.4387 2093.5449 2130.7392 2132.5599 2132.2998 2133.6003 2136.7215 2140.8831 2122.1559 1810.5561 
14:31:53.795886 2056 2026 2132.82 2125.7973 2129.4387 2128.3983 2130.219 2097.4464 2133.0801 2132.0397 2132.5599 2134.1205 2135.421 2142.4437 2122.9362 1812.3768 
14:31:53.803928 2076 2020 2134.1205 2129.1786 2130.7392 2130.219 2133.0801 2116.6938 2132.82 2132.82 2133.0801 2135.421 2136.9816 2142.9639 2122.6761 1813.6773 
14:31:53.811925 2067 2015 2133.6003 2130.7392 2131.2594 2132.0397 2132.0397 2125.7973 2130.4791 2133.0801 2133.6003 2134.9008 2136.2013 2140.1028 2121.1155 1817.8389 
14:31:53.819895 2071 2012 2132.82 2130.9993 2130.7392 2130.7392 2130.4791 2119.5549 2129.6988 2131.2594 2133.6003 2134.3806 2134.3806 2138.5422 2120.3352 1820.7 
14:31:53.827887 2074 2005 2133.8604 2129.9589 2129.1786 2128.9185 2131.7796 2107.5903 2127.8781 2132.0397 2133.0801 2135.421 2134.1205 2135.9412 2120.0751 1820.9601 
